# %ECSV 0.9
# ---
# datatype:
# - {name: wavelength, unit: Angstrom, datatype: float32}
# - {name: response, datatype: float32}
# meta: !!omap
# - {band_name: SDSS_i}
# - {group_name: OIG}
wavelength response
6111.00000 0.0
6790.00000 0.004401
6795.00000 0.005677
6800.00000 0.00727
6805.00000 0.00927
6810.00000 0.011665
6815.00000 0.014599
6820.00000 0.018109
6825.00000 0.022186
6830.00000 0.027085
6835.00000 0.032703
6840.00000 0.039295
6845.00000 0.046826
6850.00000 0.055167
6855.00000 0.06458
6860.00000 0.075109
6865.00000 0.086521
6870.00000 0.099297
6875.00000 0.113027
6880.00000 0.127866
6885.00000 0.143882
6890.00000 0.160462
6895.00000 0.178287
6900.00000 0.197009
6905.00000 0.216223
6910.00000 0.236455
6915.00000 0.25713
6920.00000 0.278059
6925.00000 0.300083
6930.00000 0.321618
6935.00000 0.344147
6940.00000 0.366345
6945.00000 0.388528
6950.00000 0.410485
6955.00000 0.432438
6960.00000 0.453762
6965.00000 0.475204
6970.00000 0.495929
6975.00000 0.516561
6980.00000 0.536972
6985.00000 0.555704
6990.00000 0.575289
6995.00000 0.593287
7000.00000 0.610831
7005.00000 0.627724
7010.00000 0.64408
7015.00000 0.659189
7020.00000 0.674652
7025.00000 0.688426
7030.00000 0.70268
7035.00000 0.715822
7040.00000 0.727755
7045.00000 0.739786
7050.00000 0.750862
7055.00000 0.761406
7060.00000 0.771488
7065.00000 0.781071
7070.00000 0.790087
7075.00000 0.799051
7080.00000 0.806916
7085.00000 0.814309
7090.00000 0.820966
7095.00000 0.828366
7100.00000 0.834553
7105.00000 0.840753
7110.00000 0.846205
7115.00000 0.85199
7120.00000 0.856701
7125.00000 0.862032
7130.00000 0.866381
7135.00000 0.870427
7140.00000 0.874823
7145.00000 0.878481
7150.00000 0.882593
7155.00000 0.885494
7160.00000 0.889064
7165.00000 0.892078
7170.00000 0.895347
7175.00000 0.897822
7180.00000 0.90054
7185.00000 0.903474
7190.00000 0.905708
7195.00000 0.909071
7200.00000 0.910526
7205.00000 0.912731
7210.00000 0.915232
7215.00000 0.91686
7220.00000 0.91965
7225.00000 0.92096
7230.00000 0.923294
7235.00000 0.9247
7240.00000 0.926865
7245.00000 0.928389
7250.00000 0.930018
7255.00000 0.931732
7260.00000 0.933834
7265.00000 0.934592
7270.00000 0.936538
7275.00000 0.938146
7280.00000 0.939127
7285.00000 0.94087
7290.00000 0.94167
7295.00000 0.943228
7300.00000 0.9444
7305.00000 0.945832
7310.00000 0.946942
7315.00000 0.948584
7320.00000 0.948854
7325.00000 0.95042
7330.00000 0.951071
7335.00000 0.952506
7340.00000 0.953354
7345.00000 0.953899
7350.00000 0.95485
7355.00000 0.95611
7360.00000 0.956929
7365.00000 0.957027
7370.00000 0.957775
7375.00000 0.958847
7380.00000 0.959434
7385.00000 0.959939
7390.00000 0.960446
7395.00000 0.961055
7400.00000 0.961923
7405.00000 0.962107
7410.00000 0.962715
7415.00000 0.963493
7420.00000 0.963586
7425.00000 0.963926
7430.00000 0.964463
7435.00000 0.964835
7440.00000 0.964476
7445.00000 0.965336
7450.00000 0.965557
7455.00000 0.965793
7460.00000 0.966044
7465.00000 0.966198
7470.00000 0.966152
7475.00000 0.966528
7480.00000 0.966423
7485.00000 0.966793
7490.00000 0.966724
7495.00000 0.96664
7500.00000 0.966613
7505.00000 0.966813
7510.00000 0.966938
7515.00000 0.966223
7520.00000 0.967181
7525.00000 0.966456
7530.00000 0.966314
7535.00000 0.966645
7540.00000 0.96604
7545.00000 0.966151
7550.00000 0.965797
7555.00000 0.966174
7560.00000 0.965651
7565.00000 0.965468
7570.00000 0.964813
7575.00000 0.965332
7580.00000 0.964309
7585.00000 0.964417
7590.00000 0.965327
7595.00000 0.963282
7600.00000 0.96326
7605.00000 0.963921
7610.00000 0.96309
7615.00000 0.962623
7620.00000 0.962558
7625.00000 0.961905
7630.00000 0.962355
7635.00000 0.961551
7640.00000 0.961791
7645.00000 0.961047
7650.00000 0.96154
7655.00000 0.960669
7660.00000 0.960652
7665.00000 0.960629
7670.00000 0.960049
7675.00000 0.960489
7680.00000 0.959951
7685.00000 0.959978
7690.00000 0.959371
7695.00000 0.960134
7700.00000 0.959611
7705.00000 0.959764
7710.00000 0.959419
7715.00000 0.959664
7720.00000 0.959454
7725.00000 0.959367
7730.00000 0.959004
7735.00000 0.959513
7740.00000 0.95878
7745.00000 0.959479
7750.00000 0.959252
7755.00000 0.958863
7760.00000 0.959523
7765.00000 0.95847
7770.00000 0.959406
7775.00000 0.95899
7780.00000 0.960085
7785.00000 0.958538
7790.00000 0.959503
7795.00000 0.958259
7800.00000 0.959893
7805.00000 0.958705
7810.00000 0.958344
7815.00000 0.95794
7820.00000 0.957953
7825.00000 0.957605
7830.00000 0.957626
7835.00000 0.957383
7840.00000 0.956582
7845.00000 0.956636
7850.00000 0.956038
7855.00000 0.955799
7860.00000 0.953986
7865.00000 0.955432
7870.00000 0.953465
7875.00000 0.953417
7880.00000 0.952461
7885.00000 0.951824
7890.00000 0.950762
7895.00000 0.950683
7900.00000 0.949226
7905.00000 0.948302
7910.00000 0.948034
7915.00000 0.947066
7920.00000 0.945624
7925.00000 0.944419
7930.00000 0.944048
7935.00000 0.942658
7940.00000 0.942316
7945.00000 0.940414
7950.00000 0.940071
7955.00000 0.938897
7960.00000 0.938234
7965.00000 0.936171
7970.00000 0.936172
7975.00000 0.934041
7980.00000 0.933833
7985.00000 0.932233
7990.00000 0.931272
7995.00000 0.9306
8000.00000 0.929493
8005.00000 0.929034
8010.00000 0.927553
8015.00000 0.927094
8020.00000 0.926382
8025.00000 0.925478
8030.00000 0.925153
8035.00000 0.923851
8040.00000 0.922909
8045.00000 0.923256
8050.00000 0.922719
8055.00000 0.921914
8060.00000 0.921723
8065.00000 0.921385
8070.00000 0.921594
8075.00000 0.92187
8080.00000 0.921954
8085.00000 0.921131
8090.00000 0.92271
8095.00000 0.922032
8100.00000 0.92278
8105.00000 0.922917
8110.00000 0.92398
8115.00000 0.924615
8120.00000 0.925147
8125.00000 0.925933
8130.00000 0.92677
8135.00000 0.928212
8140.00000 0.928887
8145.00000 0.93058
8150.00000 0.931825
8155.00000 0.93315
8160.00000 0.934039
8165.00000 0.936097
8170.00000 0.937089
8175.00000 0.939119
8180.00000 0.940499
8185.00000 0.942155
8190.00000 0.943022
8195.00000 0.944903
8200.00000 0.946125
8205.00000 0.947294
8210.00000 0.948646
8215.00000 0.949819
8220.00000 0.950945
8225.00000 0.951365
8230.00000 0.952926
8235.00000 0.952176
8240.00000 0.953179
8245.00000 0.95332
8250.00000 0.952928
8255.00000 0.950927
8260.00000 0.950837
8265.00000 0.948873
8270.00000 0.947274
8275.00000 0.943455
8280.00000 0.941074
8285.00000 0.93739
8290.00000 0.932737
8295.00000 0.927234
8300.00000 0.919816
8305.00000 0.912734
8310.00000 0.904108
8315.00000 0.894018
8320.00000 0.882262
8325.00000 0.869899
8330.00000 0.85435
8335.00000 0.83896
8340.00000 0.819828
8345.00000 0.799534
8350.00000 0.777138
8355.00000 0.753765
8360.00000 0.726767
8365.00000 0.699202
8370.00000 0.668971
8375.00000 0.638185
8380.00000 0.605084
8385.00000 0.57122
8390.00000 0.536896
8395.00000 0.502414
8400.00000 0.467529
8405.00000 0.433694
8410.00000 0.400251
8415.00000 0.367904
8420.00000 0.336814
8425.00000 0.306851
8430.00000 0.279027
8435.00000 0.252702
8440.00000 0.227625
8445.00000 0.205834
8450.00000 0.185004
8455.00000 0.16621
8460.00000 0.149204
8465.00000 0.133589
8470.00000 0.11931
8475.00000 0.106967
8480.00000 0.095612
8485.00000 0.085533
8490.00000 0.076467
8495.00000 0.068334
8500.00000 0.061266
8505.00000 0.054615
8510.00000 0.049059
8515.00000 0.043988
8520.00000 0.039362
8525.00000 0.035351
8530.00000 0.031669
8535.00000 0.028505
8540.00000 0.025722
8545.00000 0.02309
8550.00000 0.020803
8555.00000 0.01882
8560.00000 0.01694
8565.00000 0.015306
8570.00000 0.013842
8575.00000 0.012532
8580.00000 0.011437
8585.00000 0.01029
8590.00000 0.009411
8595.00000 0.008524
8600.00000 0.007725
8605.00000 0.007051
8610.00000 0.00645
8615.00000 0.005873
8620.00000 0.005383
8625.00000 0.004881
8630.00000 0.004475
8635.00000 0.004111
9498.50000 0.0
