# %ECSV 0.9
# ---
# datatype:
# - {name: wavelength, unit: Angstrom, datatype: float32}
# - {name: response, datatype: float32}
# meta: !!omap
# - {band_name: Si3}
# - {group_name: CanariCam}
wavelength response
79524.00000 0.0
88360.00000 0.004034
88370.00000 0.004082
88380.00000 0.00413
88390.00000 0.00418
88400.00000 0.00423
88410.00000 0.004281
88420.00000 0.004333
88430.00000 0.004386
88440.00000 0.004441
88450.00000 0.004495
88460.00000 0.004551
88470.00000 0.004608
88480.00000 0.004665
88490.00000 0.004724
88500.00000 0.004783
88510.00000 0.004843
88520.00000 0.004903
88530.00000 0.004965
88540.00000 0.005027
88550.00000 0.00509
88560.00000 0.005154
88570.00000 0.005218
88580.00000 0.005283
88590.00000 0.005349
88600.00000 0.005416
88610.00000 0.005483
88620.00000 0.005552
88630.00000 0.005621
88640.00000 0.00569
88650.00000 0.005761
88660.00000 0.005832
88670.00000 0.005904
88680.00000 0.005976
88690.00000 0.00605
88700.00000 0.006124
88710.00000 0.006198
88720.00000 0.006274
88730.00000 0.006351
88740.00000 0.006428
88750.00000 0.006506
88760.00000 0.006585
88770.00000 0.006665
88780.00000 0.006745
88790.00000 0.006827
88800.00000 0.006909
88810.00000 0.006993
88820.00000 0.007077
88830.00000 0.007163
88840.00000 0.007249
88850.00000 0.007336
88860.00000 0.007425
88870.00000 0.007514
88880.00000 0.007605
88890.00000 0.007697
88900.00000 0.00779
88910.00000 0.007884
88920.00000 0.00798
88930.00000 0.008076
88940.00000 0.008174
88950.00000 0.008273
88960.00000 0.008374
88970.00000 0.008477
88980.00000 0.008581
88990.00000 0.008686
89000.00000 0.008793
89010.00000 0.008901
89020.00000 0.009011
89030.00000 0.009123
89040.00000 0.009236
89050.00000 0.009351
89060.00000 0.009467
89070.00000 0.009585
89080.00000 0.009705
89090.00000 0.009826
89100.00000 0.009949
89110.00000 0.010074
89120.00000 0.0102
89130.00000 0.010328
89140.00000 0.010458
89150.00000 0.010589
89160.00000 0.010723
89170.00000 0.010857
89180.00000 0.010994
89190.00000 0.011132
89200.00000 0.011271
89210.00000 0.011413
89220.00000 0.011555
89230.00000 0.011699
89240.00000 0.011844
89250.00000 0.011991
89260.00000 0.01214
89270.00000 0.012291
89280.00000 0.012444
89290.00000 0.0126
89300.00000 0.012758
89310.00000 0.012917
89320.00000 0.013079
89330.00000 0.013243
89340.00000 0.013409
89350.00000 0.013578
89360.00000 0.013748
89370.00000 0.013922
89380.00000 0.014098
89390.00000 0.014275
89400.00000 0.014455
89410.00000 0.014637
89420.00000 0.014823
89430.00000 0.015011
89440.00000 0.015202
89450.00000 0.015397
89460.00000 0.015595
89470.00000 0.015795
89480.00000 0.015999
89490.00000 0.016206
89500.00000 0.016415
89510.00000 0.016628
89520.00000 0.016843
89530.00000 0.017061
89540.00000 0.017281
89550.00000 0.017504
89560.00000 0.017729
89570.00000 0.017957
89580.00000 0.018189
89590.00000 0.018425
89600.00000 0.018664
89610.00000 0.018908
89620.00000 0.019155
89630.00000 0.019406
89640.00000 0.019661
89650.00000 0.019919
89660.00000 0.020181
89670.00000 0.020446
89680.00000 0.020715
89690.00000 0.020987
89700.00000 0.021263
89710.00000 0.021541
89720.00000 0.021823
89730.00000 0.022108
89740.00000 0.022398
89750.00000 0.022693
89760.00000 0.022992
89770.00000 0.023297
89780.00000 0.023607
89790.00000 0.023921
89800.00000 0.02424
89810.00000 0.024564
89820.00000 0.024892
89830.00000 0.025224
89840.00000 0.025561
89850.00000 0.025902
89860.00000 0.026246
89870.00000 0.026594
89880.00000 0.026946
89890.00000 0.027302
89900.00000 0.027664
89910.00000 0.028032
89920.00000 0.028406
89930.00000 0.028787
89940.00000 0.029175
89950.00000 0.029569
89960.00000 0.029968
89970.00000 0.030373
89980.00000 0.030785
89990.00000 0.031202
90000.00000 0.031625
90010.00000 0.032053
90020.00000 0.032487
90030.00000 0.032925
90040.00000 0.033369
90050.00000 0.033818
90060.00000 0.034275
90070.00000 0.034738
90080.00000 0.03521
90090.00000 0.03569
90100.00000 0.036179
90110.00000 0.036675
90120.00000 0.037179
90130.00000 0.03769
90140.00000 0.038209
90150.00000 0.038734
90160.00000 0.039267
90170.00000 0.039807
90180.00000 0.040353
90190.00000 0.040905
90200.00000 0.041464
90210.00000 0.04203
90220.00000 0.042603
90230.00000 0.043186
90240.00000 0.043778
90250.00000 0.04438
90260.00000 0.044993
90270.00000 0.045616
90280.00000 0.046248
90290.00000 0.046889
90300.00000 0.047539
90310.00000 0.048198
90320.00000 0.048866
90330.00000 0.049543
90340.00000 0.050228
90350.00000 0.050921
90360.00000 0.051622
90370.00000 0.052332
90380.00000 0.053051
90390.00000 0.053781
90400.00000 0.054521
90410.00000 0.055272
90420.00000 0.056036
90430.00000 0.05681
90440.00000 0.057596
90450.00000 0.058391
90460.00000 0.059198
90470.00000 0.060015
90480.00000 0.060842
90490.00000 0.06168
90500.00000 0.062528
90510.00000 0.063385
90520.00000 0.064251
90530.00000 0.065127
90540.00000 0.066014
90550.00000 0.066913
90560.00000 0.067825
90570.00000 0.06875
90580.00000 0.069691
90590.00000 0.070645
90600.00000 0.071611
90610.00000 0.07259
90620.00000 0.073582
90630.00000 0.074588
90640.00000 0.075608
90650.00000 0.076643
90660.00000 0.077692
90670.00000 0.078756
90680.00000 0.079832
90690.00000 0.080921
90700.00000 0.082025
90710.00000 0.083144
90720.00000 0.084279
90730.00000 0.085431
90740.00000 0.086602
90750.00000 0.087792
90760.00000 0.088998
90770.00000 0.090221
90780.00000 0.091461
90790.00000 0.092717
90800.00000 0.093992
90810.00000 0.095284
90820.00000 0.096595
90830.00000 0.097925
90840.00000 0.099271
90850.00000 0.100634
90860.00000 0.102014
90870.00000 0.103413
90880.00000 0.104831
90890.00000 0.106269
90900.00000 0.107727
90910.00000 0.109207
90920.00000 0.110706
90930.00000 0.112225
90940.00000 0.113763
90950.00000 0.115321
90960.00000 0.116899
90970.00000 0.118499
90980.00000 0.120119
90990.00000 0.121761
91000.00000 0.123424
91010.00000 0.125106
91020.00000 0.126809
91030.00000 0.128532
91040.00000 0.130277
91050.00000 0.132045
91060.00000 0.133835
91070.00000 0.135649
91080.00000 0.137487
91090.00000 0.139347
91100.00000 0.14123
91110.00000 0.143135
91120.00000 0.145063
91130.00000 0.147014
91140.00000 0.14899
91150.00000 0.150991
91160.00000 0.153016
91170.00000 0.155066
91180.00000 0.157139
91190.00000 0.159235
91200.00000 0.161356
91210.00000 0.163502
91220.00000 0.165672
91230.00000 0.167869
91240.00000 0.170091
91250.00000 0.172338
91260.00000 0.174611
91270.00000 0.176908
91280.00000 0.179231
91290.00000 0.181578
91300.00000 0.183952
91310.00000 0.186351
91320.00000 0.188777
91330.00000 0.191229
91340.00000 0.193706
91350.00000 0.196209
91360.00000 0.198738
91370.00000 0.201292
91380.00000 0.203872
91390.00000 0.206479
91400.00000 0.209111
91410.00000 0.21177
91420.00000 0.214455
91430.00000 0.217165
91440.00000 0.219901
91450.00000 0.222663
91460.00000 0.225451
91470.00000 0.228266
91480.00000 0.231108
91490.00000 0.233976
91500.00000 0.236872
91510.00000 0.239795
91520.00000 0.242744
91530.00000 0.24572
91540.00000 0.248722
91550.00000 0.251751
91560.00000 0.254806
91570.00000 0.257887
91580.00000 0.260995
91590.00000 0.26413
91600.00000 0.267292
91610.00000 0.270479
91620.00000 0.273693
91630.00000 0.276933
91640.00000 0.280199
91650.00000 0.28349
91660.00000 0.286807
91670.00000 0.29015
91680.00000 0.29352
91690.00000 0.296917
91700.00000 0.300339
91710.00000 0.303785
91720.00000 0.307255
91730.00000 0.310747
91740.00000 0.31426
91750.00000 0.317795
91760.00000 0.321354
91770.00000 0.324938
91780.00000 0.328545
91790.00000 0.332172
91800.00000 0.335821
91810.00000 0.339489
91820.00000 0.343176
91830.00000 0.34688
91840.00000 0.350605
91850.00000 0.354351
91860.00000 0.358118
91870.00000 0.361904
91880.00000 0.365707
91890.00000 0.369526
91900.00000 0.37336
91910.00000 0.377207
91920.00000 0.381068
91930.00000 0.384947
91940.00000 0.388843
91950.00000 0.392755
91960.00000 0.39668
91970.00000 0.400618
91980.00000 0.404568
91990.00000 0.408528
92000.00000 0.412498
92010.00000 0.416482
92020.00000 0.420479
92030.00000 0.424489
92040.00000 0.42851
92050.00000 0.43254
92060.00000 0.436578
92070.00000 0.440623
92080.00000 0.444672
92090.00000 0.448729
92100.00000 0.452796
92110.00000 0.456873
92120.00000 0.460957
92130.00000 0.465047
92140.00000 0.46914
92150.00000 0.473234
92160.00000 0.477328
92170.00000 0.481421
92180.00000 0.48552
92190.00000 0.489624
92200.00000 0.493731
92210.00000 0.497839
92220.00000 0.501945
92230.00000 0.506047
92240.00000 0.510143
92250.00000 0.51423
92260.00000 0.518312
92270.00000 0.522394
92280.00000 0.526474
92290.00000 0.53055
92300.00000 0.534618
92310.00000 0.538676
92320.00000 0.542722
92330.00000 0.546754
92340.00000 0.550768
92350.00000 0.554773
92360.00000 0.558769
92370.00000 0.562753
92380.00000 0.566724
92390.00000 0.570682
92400.00000 0.574624
92410.00000 0.578549
92420.00000 0.582455
92430.00000 0.586344
92440.00000 0.590218
92450.00000 0.594078
92460.00000 0.597922
92470.00000 0.601749
92480.00000 0.605557
92490.00000 0.609346
92500.00000 0.613115
92510.00000 0.616862
92520.00000 0.620591
92530.00000 0.624302
92540.00000 0.627995
92550.00000 0.631668
92560.00000 0.635321
92570.00000 0.638953
92580.00000 0.642564
92590.00000 0.646151
92600.00000 0.649717
92610.00000 0.653266
92620.00000 0.656795
92630.00000 0.660302
92640.00000 0.663787
92650.00000 0.667248
92660.00000 0.670683
92670.00000 0.674089
92680.00000 0.677467
92690.00000 0.680818
92700.00000 0.684145
92710.00000 0.687447
92720.00000 0.690723
92730.00000 0.693971
92740.00000 0.697191
92750.00000 0.700383
92760.00000 0.703543
92770.00000 0.706674
92780.00000 0.709777
92790.00000 0.712852
92800.00000 0.715899
92810.00000 0.718917
92820.00000 0.721905
92830.00000 0.724862
92840.00000 0.727789
92850.00000 0.730683
92860.00000 0.733547
92870.00000 0.736379
92880.00000 0.739181
92890.00000 0.741953
92900.00000 0.744694
92910.00000 0.747405
92920.00000 0.750086
92930.00000 0.752736
92940.00000 0.755356
92950.00000 0.757947
92960.00000 0.760508
92970.00000 0.763039
92980.00000 0.765539
92990.00000 0.768009
93000.00000 0.770448
93010.00000 0.772855
93020.00000 0.77523
93030.00000 0.777573
93040.00000 0.779883
93050.00000 0.782162
93060.00000 0.784409
93070.00000 0.786625
93080.00000 0.788811
93090.00000 0.790968
93100.00000 0.793095
93110.00000 0.795193
93120.00000 0.797261
93130.00000 0.799297
93140.00000 0.801304
93150.00000 0.80328
93160.00000 0.805228
93170.00000 0.807149
93180.00000 0.809042
93190.00000 0.81091
93200.00000 0.812752
93210.00000 0.814566
93220.00000 0.816351
93230.00000 0.818109
93240.00000 0.81984
93250.00000 0.821546
93260.00000 0.823227
93270.00000 0.824886
93280.00000 0.826523
93290.00000 0.828139
93300.00000 0.82973
93310.00000 0.831297
93320.00000 0.832841
93330.00000 0.834362
93340.00000 0.83586
93350.00000 0.837335
93360.00000 0.838789
93370.00000 0.84022
93380.00000 0.84163
93390.00000 0.843018
93400.00000 0.844382
93410.00000 0.845725
93420.00000 0.847046
93430.00000 0.848344
93440.00000 0.849621
93450.00000 0.850877
93460.00000 0.852112
93470.00000 0.853325
93480.00000 0.854515
93490.00000 0.855683
93500.00000 0.85683
93510.00000 0.857956
93520.00000 0.859062
93530.00000 0.860149
93540.00000 0.861217
93550.00000 0.862266
93560.00000 0.863293
93570.00000 0.8643
93580.00000 0.865286
93590.00000 0.866253
93600.00000 0.867202
93610.00000 0.868134
93620.00000 0.86905
93630.00000 0.869952
93640.00000 0.870837
93650.00000 0.871704
93660.00000 0.872553
93670.00000 0.873385
93680.00000 0.874201
93690.00000 0.875003
93700.00000 0.875792
93710.00000 0.876569
93720.00000 0.877335
93730.00000 0.87809
93740.00000 0.878831
93750.00000 0.879559
93760.00000 0.880273
93770.00000 0.880976
93780.00000 0.881666
93790.00000 0.882346
93800.00000 0.883016
93810.00000 0.883676
93820.00000 0.884325
93830.00000 0.884962
93840.00000 0.885588
93850.00000 0.886203
93860.00000 0.886808
93870.00000 0.887402
93880.00000 0.887987
93890.00000 0.888562
93900.00000 0.889129
93910.00000 0.889686
93920.00000 0.890234
93930.00000 0.890772
93940.00000 0.8913
93950.00000 0.891818
93960.00000 0.892325
93970.00000 0.892823
93980.00000 0.89331
93990.00000 0.893787
94000.00000 0.894252
94010.00000 0.894706
94020.00000 0.895149
94030.00000 0.895583
94040.00000 0.896007
94050.00000 0.896423
94060.00000 0.896831
94070.00000 0.897231
94080.00000 0.897624
94090.00000 0.898007
94100.00000 0.898382
94110.00000 0.898748
94120.00000 0.899106
94130.00000 0.899456
94140.00000 0.899799
94150.00000 0.900136
94160.00000 0.900467
94170.00000 0.900791
94180.00000 0.901107
94190.00000 0.901414
94200.00000 0.901715
94210.00000 0.902009
94220.00000 0.902298
94230.00000 0.902583
94240.00000 0.902866
94250.00000 0.903146
94260.00000 0.903423
94270.00000 0.903696
94280.00000 0.903966
94290.00000 0.904231
94300.00000 0.904493
94310.00000 0.90475
94320.00000 0.905004
94330.00000 0.905254
94340.00000 0.9055
94350.00000 0.905742
94360.00000 0.905979
94370.00000 0.906213
94380.00000 0.906443
94390.00000 0.906669
94400.00000 0.906892
94410.00000 0.907112
94420.00000 0.907328
94430.00000 0.907541
94440.00000 0.907752
94450.00000 0.907959
94460.00000 0.908164
94470.00000 0.908365
94480.00000 0.908563
94490.00000 0.908756
94500.00000 0.908946
94510.00000 0.90913
94520.00000 0.909309
94530.00000 0.909483
94540.00000 0.909652
94550.00000 0.909817
94560.00000 0.909977
94570.00000 0.910133
94580.00000 0.910286
94590.00000 0.910436
94600.00000 0.910583
94610.00000 0.910728
94620.00000 0.910869
94630.00000 0.911007
94640.00000 0.911142
94650.00000 0.911274
94660.00000 0.911402
94670.00000 0.911528
94680.00000 0.911652
94690.00000 0.911772
94700.00000 0.911891
94710.00000 0.912006
94720.00000 0.912117
94730.00000 0.912225
94740.00000 0.912331
94750.00000 0.912435
94760.00000 0.912537
94770.00000 0.912638
94780.00000 0.912739
94790.00000 0.912839
94800.00000 0.912939
94810.00000 0.913038
94820.00000 0.913136
94830.00000 0.913232
94840.00000 0.913328
94850.00000 0.913422
94860.00000 0.913514
94870.00000 0.913606
94880.00000 0.913696
94890.00000 0.913784
94900.00000 0.913872
94910.00000 0.913958
94920.00000 0.914042
94930.00000 0.914126
94940.00000 0.914208
94950.00000 0.914289
94960.00000 0.914369
94970.00000 0.914448
94980.00000 0.914526
94990.00000 0.914603
95000.00000 0.914679
95010.00000 0.914754
95020.00000 0.914827
95030.00000 0.914898
95040.00000 0.914967
95050.00000 0.915034
95060.00000 0.915098
95070.00000 0.91516
95080.00000 0.91522
95090.00000 0.915277
95100.00000 0.915333
95110.00000 0.915386
95120.00000 0.915438
95130.00000 0.915489
95140.00000 0.915537
95150.00000 0.915585
95160.00000 0.915631
95170.00000 0.915674
95180.00000 0.915716
95190.00000 0.915757
95200.00000 0.915796
95210.00000 0.915833
95220.00000 0.91587
95230.00000 0.915905
95240.00000 0.91594
95250.00000 0.915973
95260.00000 0.916004
95270.00000 0.916034
95280.00000 0.916063
95290.00000 0.916091
95300.00000 0.916118
95310.00000 0.916145
95320.00000 0.916171
95330.00000 0.916198
95340.00000 0.916224
95350.00000 0.91625
95360.00000 0.916276
95370.00000 0.916301
95380.00000 0.916325
95390.00000 0.916349
95400.00000 0.916371
95410.00000 0.916393
95420.00000 0.916414
95430.00000 0.916434
95440.00000 0.916453
95450.00000 0.916472
95460.00000 0.916489
95470.00000 0.916506
95480.00000 0.916522
95490.00000 0.916536
95500.00000 0.91655
95510.00000 0.916561
95520.00000 0.916572
95530.00000 0.916581
95540.00000 0.91659
95550.00000 0.916597
95560.00000 0.916603
95570.00000 0.916607
95580.00000 0.91661
95590.00000 0.916612
95600.00000 0.916612
95610.00000 0.91661
95620.00000 0.916607
95630.00000 0.916602
95640.00000 0.916595
95650.00000 0.916587
95660.00000 0.916578
95670.00000 0.916568
95680.00000 0.916556
95690.00000 0.916543
95700.00000 0.916529
95710.00000 0.916514
95720.00000 0.916497
95730.00000 0.91648
95740.00000 0.916461
95750.00000 0.91644
95760.00000 0.916419
95770.00000 0.916397
95780.00000 0.916373
95790.00000 0.916349
95800.00000 0.916323
95810.00000 0.916297
95820.00000 0.916269
95830.00000 0.916241
95840.00000 0.916211
95850.00000 0.91618
95860.00000 0.916148
95870.00000 0.916115
95880.00000 0.91608
95890.00000 0.916045
95900.00000 0.916008
95910.00000 0.915971
95920.00000 0.915932
95930.00000 0.915892
95940.00000 0.915851
95950.00000 0.915808
95960.00000 0.915764
95970.00000 0.915718
95980.00000 0.915671
95990.00000 0.915622
96000.00000 0.915572
96010.00000 0.915521
96020.00000 0.915468
96030.00000 0.915414
96040.00000 0.915358
96050.00000 0.9153
96060.00000 0.915241
96070.00000 0.91518
96080.00000 0.915118
96090.00000 0.915054
96100.00000 0.914988
96110.00000 0.914921
96120.00000 0.914852
96130.00000 0.914782
96140.00000 0.91471
96150.00000 0.914637
96160.00000 0.914562
96170.00000 0.914485
96180.00000 0.914408
96190.00000 0.914328
96200.00000 0.914247
96210.00000 0.914164
96220.00000 0.91408
96230.00000 0.913994
96240.00000 0.913907
96250.00000 0.913817
96260.00000 0.913727
96270.00000 0.913634
96280.00000 0.91354
96290.00000 0.913445
96300.00000 0.913348
96310.00000 0.913249
96320.00000 0.913149
96330.00000 0.913046
96340.00000 0.912943
96350.00000 0.912838
96360.00000 0.912731
96370.00000 0.912622
96380.00000 0.912512
96390.00000 0.912401
96400.00000 0.912288
96410.00000 0.912173
96420.00000 0.912057
96430.00000 0.911939
96440.00000 0.911819
96450.00000 0.911698
96460.00000 0.911575
96470.00000 0.911451
96480.00000 0.911325
96490.00000 0.911198
96500.00000 0.911069
96510.00000 0.910939
96520.00000 0.910807
96530.00000 0.910675
96540.00000 0.910541
96550.00000 0.910406
96560.00000 0.910269
96570.00000 0.910131
96580.00000 0.909992
96590.00000 0.909851
96600.00000 0.909709
96610.00000 0.909565
96620.00000 0.90942
96630.00000 0.909273
96640.00000 0.909125
96650.00000 0.908976
96660.00000 0.908825
96670.00000 0.908673
96680.00000 0.90852
96690.00000 0.908365
96700.00000 0.908208
96710.00000 0.90805
96720.00000 0.907891
96730.00000 0.90773
96740.00000 0.907567
96750.00000 0.907403
96760.00000 0.907238
96770.00000 0.907071
96780.00000 0.906903
96790.00000 0.906733
96800.00000 0.906563
96810.00000 0.90639
96820.00000 0.906216
96830.00000 0.906041
96840.00000 0.905864
96850.00000 0.905686
96860.00000 0.905506
96870.00000 0.905326
96880.00000 0.905144
96890.00000 0.904961
96900.00000 0.904778
96910.00000 0.904593
96920.00000 0.904408
96930.00000 0.904221
96940.00000 0.904033
96950.00000 0.903844
96960.00000 0.903654
96970.00000 0.903464
96980.00000 0.903272
96990.00000 0.90308
97000.00000 0.902888
97010.00000 0.902694
97020.00000 0.9025
97030.00000 0.902305
97040.00000 0.902108
97050.00000 0.901912
97060.00000 0.901715
97070.00000 0.901517
97080.00000 0.901319
97090.00000 0.901121
97100.00000 0.900922
97110.00000 0.900722
97120.00000 0.900523
97130.00000 0.900322
97140.00000 0.900122
97150.00000 0.89992
97160.00000 0.899719
97170.00000 0.899517
97180.00000 0.899315
97190.00000 0.899112
97200.00000 0.898909
97210.00000 0.898706
97220.00000 0.898502
97230.00000 0.898298
97240.00000 0.898094
97250.00000 0.897889
97260.00000 0.897685
97270.00000 0.89748
97280.00000 0.897274
97290.00000 0.897069
97300.00000 0.896863
97310.00000 0.896657
97320.00000 0.896451
97330.00000 0.896244
97340.00000 0.896037
97350.00000 0.89583
97360.00000 0.895623
97370.00000 0.895416
97380.00000 0.895209
97390.00000 0.895002
97400.00000 0.894794
97410.00000 0.894586
97420.00000 0.894378
97430.00000 0.89417
97440.00000 0.893962
97450.00000 0.893754
97460.00000 0.893546
97470.00000 0.893338
97480.00000 0.89313
97490.00000 0.892922
97500.00000 0.892714
97510.00000 0.892506
97520.00000 0.892298
97530.00000 0.892091
97540.00000 0.891883
97550.00000 0.891676
97560.00000 0.89147
97570.00000 0.891263
97580.00000 0.891057
97590.00000 0.890852
97600.00000 0.890646
97610.00000 0.890441
97620.00000 0.890236
97630.00000 0.890032
97640.00000 0.889828
97650.00000 0.889624
97660.00000 0.889421
97670.00000 0.889219
97680.00000 0.889016
97690.00000 0.888814
97700.00000 0.888613
97710.00000 0.888412
97720.00000 0.888211
97730.00000 0.888011
97740.00000 0.887811
97750.00000 0.887613
97760.00000 0.887414
97770.00000 0.887216
97780.00000 0.887018
97790.00000 0.886821
97800.00000 0.886625
97810.00000 0.886428
97820.00000 0.886233
97830.00000 0.886038
97840.00000 0.885844
97850.00000 0.885651
97860.00000 0.885458
97870.00000 0.885266
97880.00000 0.885074
97890.00000 0.884883
97900.00000 0.884693
97910.00000 0.884503
97920.00000 0.884315
97930.00000 0.884127
97940.00000 0.883941
97950.00000 0.883756
97960.00000 0.883572
97970.00000 0.883388
97980.00000 0.883206
97990.00000 0.883025
98000.00000 0.882844
98010.00000 0.882665
98020.00000 0.882487
98030.00000 0.882311
98040.00000 0.882136
98050.00000 0.881962
98060.00000 0.88179
98070.00000 0.881619
98080.00000 0.881449
98090.00000 0.88128
98100.00000 0.881113
98110.00000 0.880947
98120.00000 0.880782
98130.00000 0.880619
98140.00000 0.880457
98150.00000 0.880296
98160.00000 0.880137
98170.00000 0.87998
98180.00000 0.879823
98190.00000 0.879668
98200.00000 0.879514
98210.00000 0.879361
98220.00000 0.879209
98230.00000 0.879059
98240.00000 0.878909
98250.00000 0.87876
98260.00000 0.878613
98270.00000 0.878466
98280.00000 0.878321
98290.00000 0.878177
98300.00000 0.878034
98310.00000 0.877893
98320.00000 0.877753
98330.00000 0.877614
98340.00000 0.877476
98350.00000 0.877339
98360.00000 0.877204
98370.00000 0.877069
98380.00000 0.876936
98390.00000 0.876805
98400.00000 0.876676
98410.00000 0.876549
98420.00000 0.876425
98430.00000 0.876303
98440.00000 0.876183
98450.00000 0.876065
98460.00000 0.875948
98470.00000 0.875834
98480.00000 0.875722
98490.00000 0.875613
98500.00000 0.875507
98510.00000 0.875404
98520.00000 0.875304
98530.00000 0.875207
98540.00000 0.875114
98550.00000 0.875023
98560.00000 0.874936
98570.00000 0.874851
98580.00000 0.874769
98590.00000 0.87469
98600.00000 0.874613
98610.00000 0.874539
98620.00000 0.874468
98630.00000 0.874399
98640.00000 0.874334
98650.00000 0.874271
98660.00000 0.874211
98670.00000 0.874154
98680.00000 0.874099
98690.00000 0.874046
98700.00000 0.873994
98710.00000 0.873945
98720.00000 0.873896
98730.00000 0.873849
98740.00000 0.873805
98750.00000 0.873762
98760.00000 0.873722
98770.00000 0.873683
98780.00000 0.873646
98790.00000 0.87361
98800.00000 0.873576
98810.00000 0.873543
98820.00000 0.873511
98830.00000 0.873481
98840.00000 0.873452
98850.00000 0.873425
98860.00000 0.8734
98870.00000 0.873375
98880.00000 0.873353
98890.00000 0.873331
98900.00000 0.873311
98910.00000 0.873292
98920.00000 0.873275
98930.00000 0.87326
98940.00000 0.873246
98950.00000 0.873234
98960.00000 0.873223
98970.00000 0.873214
98980.00000 0.873205
98990.00000 0.873196
99000.00000 0.873188
99010.00000 0.87318
99020.00000 0.873173
99030.00000 0.873167
99040.00000 0.873162
99050.00000 0.873158
99060.00000 0.873154
99070.00000 0.873151
99080.00000 0.873147
99090.00000 0.873143
99100.00000 0.873138
99110.00000 0.873133
99120.00000 0.873127
99130.00000 0.873121
99140.00000 0.873115
99150.00000 0.873109
99160.00000 0.873102
99170.00000 0.873095
99180.00000 0.873087
99190.00000 0.873078
99200.00000 0.873068
99210.00000 0.873057
99220.00000 0.873045
99230.00000 0.873033
99240.00000 0.87302
99250.00000 0.873006
99260.00000 0.872991
99270.00000 0.872976
99280.00000 0.872959
99290.00000 0.872942
99300.00000 0.872923
99310.00000 0.872903
99320.00000 0.872883
99330.00000 0.872863
99340.00000 0.872842
99350.00000 0.87282
99360.00000 0.872796
99370.00000 0.872771
99380.00000 0.872744
99390.00000 0.872715
99400.00000 0.872684
99410.00000 0.87265
99420.00000 0.872615
99430.00000 0.872578
99440.00000 0.87254
99450.00000 0.872499
99460.00000 0.872457
99470.00000 0.872412
99480.00000 0.872364
99490.00000 0.872314
99500.00000 0.87226
99510.00000 0.872203
99520.00000 0.872144
99530.00000 0.872083
99540.00000 0.872019
99550.00000 0.871952
99560.00000 0.871883
99570.00000 0.87181
99580.00000 0.871735
99590.00000 0.871657
99600.00000 0.871576
99610.00000 0.871492
99620.00000 0.871405
99630.00000 0.871314
99640.00000 0.87122
99650.00000 0.871124
99660.00000 0.871025
99670.00000 0.870924
99680.00000 0.870822
99690.00000 0.870717
99700.00000 0.87061
99710.00000 0.870502
99720.00000 0.870392
99730.00000 0.87028
99740.00000 0.870165
99750.00000 0.870049
99760.00000 0.86993
99770.00000 0.869809
99780.00000 0.869686
99790.00000 0.869561
99800.00000 0.869433
99810.00000 0.869304
99820.00000 0.869172
99830.00000 0.869038
99840.00000 0.868902
99850.00000 0.868764
99860.00000 0.868623
99870.00000 0.86848
99880.00000 0.868334
99890.00000 0.868185
99900.00000 0.868033
99910.00000 0.867879
99920.00000 0.867723
99930.00000 0.867564
99940.00000 0.867403
99950.00000 0.86724
99960.00000 0.867073
99970.00000 0.866902
99980.00000 0.866728
99990.00000 0.866549
100000.00000 0.866367
100010.00000 0.866179
100020.00000 0.865988
100030.00000 0.865793
100040.00000 0.865595
100050.00000 0.865392
100060.00000 0.865186
100070.00000 0.864977
100080.00000 0.864765
100090.00000 0.864549
100100.00000 0.864331
100110.00000 0.864109
100120.00000 0.863885
100130.00000 0.863656
100140.00000 0.863425
100150.00000 0.86319
100160.00000 0.862953
100170.00000 0.862712
100180.00000 0.862468
100190.00000 0.86222
100200.00000 0.86197
100210.00000 0.861717
100220.00000 0.861461
100230.00000 0.861201
100240.00000 0.860939
100250.00000 0.860673
100260.00000 0.860405
100270.00000 0.860133
100280.00000 0.859858
100290.00000 0.859581
100300.00000 0.8593
100310.00000 0.859017
100320.00000 0.858733
100330.00000 0.858446
100340.00000 0.858156
100350.00000 0.857863
100360.00000 0.857566
100370.00000 0.857266
100380.00000 0.85696
100390.00000 0.856649
100400.00000 0.856333
100410.00000 0.856011
100420.00000 0.855685
100430.00000 0.855354
100440.00000 0.855019
100450.00000 0.854679
100460.00000 0.854334
100470.00000 0.853985
100480.00000 0.853632
100490.00000 0.853274
100500.00000 0.852911
100510.00000 0.852544
100520.00000 0.852171
100530.00000 0.851795
100540.00000 0.851413
100550.00000 0.851027
100560.00000 0.850637
100570.00000 0.850242
100580.00000 0.849843
100590.00000 0.84944
100600.00000 0.849033
100610.00000 0.848621
100620.00000 0.848205
100630.00000 0.847784
100640.00000 0.847359
100650.00000 0.846929
100660.00000 0.846496
100670.00000 0.846058
100680.00000 0.845617
100690.00000 0.845173
100700.00000 0.844725
100710.00000 0.844274
100720.00000 0.84382
100730.00000 0.843363
100740.00000 0.842902
100750.00000 0.842438
100760.00000 0.84197
100770.00000 0.841497
100780.00000 0.84102
100790.00000 0.840539
100800.00000 0.840052
100810.00000 0.83956
100820.00000 0.839063
100830.00000 0.838562
100840.00000 0.838056
100850.00000 0.837546
100860.00000 0.837031
100870.00000 0.836511
100880.00000 0.835987
100890.00000 0.835459
100900.00000 0.834925
100910.00000 0.834388
100920.00000 0.833846
100930.00000 0.833299
100940.00000 0.832748
100950.00000 0.832193
100960.00000 0.831632
100970.00000 0.831068
100980.00000 0.830499
100990.00000 0.829925
101000.00000 0.829347
101010.00000 0.828765
101020.00000 0.828178
101030.00000 0.827588
101040.00000 0.826994
101050.00000 0.826395
101060.00000 0.825792
101070.00000 0.825184
101080.00000 0.824571
101090.00000 0.823952
101100.00000 0.823327
101110.00000 0.822697
101120.00000 0.822061
101130.00000 0.821421
101140.00000 0.820777
101150.00000 0.820129
101160.00000 0.819475
101170.00000 0.818814
101180.00000 0.818146
101190.00000 0.81747
101200.00000 0.816784
101210.00000 0.81609
101220.00000 0.815385
101230.00000 0.814674
101240.00000 0.813957
101250.00000 0.813233
101260.00000 0.8125
101270.00000 0.811758
101280.00000 0.811007
101290.00000 0.810244
101300.00000 0.80947
101310.00000 0.808682
101320.00000 0.807882
101330.00000 0.807071
101340.00000 0.80625
101350.00000 0.805419
101360.00000 0.804577
101370.00000 0.803724
101380.00000 0.802858
101390.00000 0.801978
101400.00000 0.801085
101410.00000 0.800178
101420.00000 0.799256
101430.00000 0.79832
101440.00000 0.797374
101450.00000 0.796415
101460.00000 0.795444
101470.00000 0.794459
101480.00000 0.793458
101490.00000 0.792442
101500.00000 0.791408
101510.00000 0.790357
101520.00000 0.789287
101530.00000 0.788198
101540.00000 0.787096
101550.00000 0.785979
101560.00000 0.784846
101570.00000 0.783696
101580.00000 0.782528
101590.00000 0.78134
101600.00000 0.780131
101610.00000 0.7789
101620.00000 0.777645
101630.00000 0.776367
101640.00000 0.775071
101650.00000 0.773757
101660.00000 0.772424
101670.00000 0.77107
101680.00000 0.769693
101690.00000 0.768292
101700.00000 0.766864
101710.00000 0.765409
101720.00000 0.763924
101730.00000 0.762408
101740.00000 0.760864
101750.00000 0.759297
101760.00000 0.757705
101770.00000 0.756086
101780.00000 0.754439
101790.00000 0.752763
101800.00000 0.751058
101810.00000 0.74932
101820.00000 0.747549
101830.00000 0.745745
101840.00000 0.743906
101850.00000 0.74204
101860.00000 0.740144
101870.00000 0.738217
101880.00000 0.73626
101890.00000 0.734269
101900.00000 0.732244
101910.00000 0.730184
101920.00000 0.728087
101930.00000 0.725953
101940.00000 0.723781
101950.00000 0.721574
101960.00000 0.719333
101970.00000 0.717058
101980.00000 0.714748
101990.00000 0.712402
102000.00000 0.710019
102010.00000 0.707598
102020.00000 0.705139
102030.00000 0.702641
102040.00000 0.700102
102050.00000 0.697526
102060.00000 0.694913
102070.00000 0.692264
102080.00000 0.689578
102090.00000 0.686853
102100.00000 0.684089
102110.00000 0.681285
102120.00000 0.67844
102130.00000 0.675553
102140.00000 0.672624
102150.00000 0.669651
102160.00000 0.666638
102170.00000 0.663583
102180.00000 0.660489
102190.00000 0.657353
102200.00000 0.654176
102210.00000 0.650959
102220.00000 0.647701
102230.00000 0.644402
102240.00000 0.641062
102250.00000 0.637682
102260.00000 0.634258
102270.00000 0.630792
102280.00000 0.627283
102290.00000 0.623734
102300.00000 0.620144
102310.00000 0.616515
102320.00000 0.612848
102330.00000 0.609144
102340.00000 0.605404
102350.00000 0.60163
102360.00000 0.597819
102370.00000 0.593966
102380.00000 0.590072
102390.00000 0.586139
102400.00000 0.582169
102410.00000 0.578164
102420.00000 0.574128
102430.00000 0.570061
102440.00000 0.565966
102450.00000 0.561846
102460.00000 0.557702
102470.00000 0.553527
102480.00000 0.549316
102490.00000 0.545072
102500.00000 0.540798
102510.00000 0.536497
102520.00000 0.53217
102530.00000 0.527823
102540.00000 0.523456
102550.00000 0.519072
102560.00000 0.514675
102570.00000 0.510264
102580.00000 0.505826
102590.00000 0.501363
102600.00000 0.496877
102610.00000 0.492372
102620.00000 0.487852
102630.00000 0.483319
102640.00000 0.478776
102650.00000 0.474227
102660.00000 0.469675
102670.00000 0.465122
102680.00000 0.46056
102690.00000 0.455981
102700.00000 0.451388
102710.00000 0.446787
102720.00000 0.442178
102730.00000 0.437567
102740.00000 0.432957
102750.00000 0.42835
102760.00000 0.42375
102770.00000 0.419161
102780.00000 0.414584
102790.00000 0.410002
102800.00000 0.405418
102810.00000 0.400834
102820.00000 0.396253
102830.00000 0.39168
102840.00000 0.387117
102850.00000 0.382568
102860.00000 0.378036
102870.00000 0.373525
102880.00000 0.369038
102890.00000 0.364568
102900.00000 0.360106
102910.00000 0.355655
102920.00000 0.351218
102930.00000 0.346798
102940.00000 0.342397
102950.00000 0.338019
102960.00000 0.333666
102970.00000 0.329341
102980.00000 0.325048
102990.00000 0.320787
103000.00000 0.316549
103010.00000 0.312333
103020.00000 0.30814
103030.00000 0.303972
103040.00000 0.299832
103050.00000 0.29572
103060.00000 0.29164
103070.00000 0.287592
103080.00000 0.28358
103090.00000 0.279605
103100.00000 0.275665
103110.00000 0.271756
103120.00000 0.267876
103130.00000 0.264028
103140.00000 0.260213
103150.00000 0.256431
103160.00000 0.252685
103170.00000 0.248974
103180.00000 0.2453
103190.00000 0.241665
103200.00000 0.238069
103210.00000 0.234511
103220.00000 0.230987
103230.00000 0.2275
103240.00000 0.224048
103250.00000 0.220633
103260.00000 0.217255
103270.00000 0.213914
103280.00000 0.210611
103290.00000 0.207346
103300.00000 0.204119
103310.00000 0.200931
103320.00000 0.19778
103330.00000 0.194668
103340.00000 0.191592
103350.00000 0.188555
103360.00000 0.185555
103370.00000 0.182592
103380.00000 0.179667
103390.00000 0.176779
103400.00000 0.173928
103410.00000 0.171115
103420.00000 0.168339
103430.00000 0.165602
103440.00000 0.162904
103450.00000 0.160243
103460.00000 0.157619
103470.00000 0.155032
103480.00000 0.152481
103490.00000 0.149965
103500.00000 0.147484
103510.00000 0.145038
103520.00000 0.142625
103530.00000 0.140248
103540.00000 0.137908
103550.00000 0.135605
103560.00000 0.133337
103570.00000 0.131104
103580.00000 0.128905
103590.00000 0.126738
103600.00000 0.124604
103610.00000 0.122501
103620.00000 0.120428
103630.00000 0.118386
103640.00000 0.116377
103650.00000 0.114402
103660.00000 0.11246
103670.00000 0.110551
103680.00000 0.108672
103690.00000 0.106824
103700.00000 0.105005
103710.00000 0.103213
103720.00000 0.101449
103730.00000 0.09971
103740.00000 0.097997
103750.00000 0.096315
103760.00000 0.094662
103770.00000 0.093039
103780.00000 0.091443
103790.00000 0.089875
103800.00000 0.088332
103810.00000 0.086815
103820.00000 0.085321
103830.00000 0.083851
103840.00000 0.082403
103850.00000 0.080977
103860.00000 0.079579
103870.00000 0.078207
103880.00000 0.076859
103890.00000 0.075536
103900.00000 0.074236
103910.00000 0.072959
103920.00000 0.071702
103930.00000 0.070466
103940.00000 0.069249
103950.00000 0.06805
103960.00000 0.066873
103970.00000 0.065718
103980.00000 0.064586
103990.00000 0.063475
104000.00000 0.062385
104010.00000 0.061313
104020.00000 0.060261
104030.00000 0.059226
104040.00000 0.058207
104050.00000 0.057204
104060.00000 0.056216
104070.00000 0.055246
104080.00000 0.054294
104090.00000 0.053361
104100.00000 0.052446
104110.00000 0.051547
104120.00000 0.050664
104130.00000 0.049797
104140.00000 0.048944
104150.00000 0.048105
104160.00000 0.047279
104170.00000 0.046465
104180.00000 0.045667
104190.00000 0.044885
104200.00000 0.044118
104210.00000 0.043366
104220.00000 0.042628
104230.00000 0.041903
104240.00000 0.04119
104250.00000 0.040489
104260.00000 0.039799
104270.00000 0.039119
104280.00000 0.038449
104290.00000 0.037791
104300.00000 0.037146
104310.00000 0.036513
104320.00000 0.035892
104330.00000 0.035282
104340.00000 0.034683
104350.00000 0.034094
104360.00000 0.033516
104370.00000 0.032946
104380.00000 0.032387
104390.00000 0.031836
104400.00000 0.031297
104410.00000 0.030769
104420.00000 0.030252
104430.00000 0.029745
104440.00000 0.029247
104450.00000 0.028758
104460.00000 0.028278
104470.00000 0.027805
104480.00000 0.027339
104490.00000 0.02688
104500.00000 0.026428
104510.00000 0.025984
104520.00000 0.025548
104530.00000 0.025121
104540.00000 0.024701
104550.00000 0.024289
104560.00000 0.023884
104570.00000 0.023487
104580.00000 0.023096
104590.00000 0.022713
104600.00000 0.022335
104610.00000 0.021965
104620.00000 0.021603
104630.00000 0.021249
104640.00000 0.020903
104650.00000 0.020563
104660.00000 0.02023
104670.00000 0.019903
104680.00000 0.019581
104690.00000 0.019264
104700.00000 0.018952
104710.00000 0.018644
104720.00000 0.01834
104730.00000 0.018041
104740.00000 0.017748
104750.00000 0.01746
104760.00000 0.017178
104770.00000 0.0169
104780.00000 0.016627
104790.00000 0.016359
104800.00000 0.016096
104810.00000 0.015838
104820.00000 0.015584
104830.00000 0.015335
104840.00000 0.015092
104850.00000 0.014855
104860.00000 0.014623
104870.00000 0.014395
104880.00000 0.014172
104890.00000 0.013953
104900.00000 0.013737
104910.00000 0.013524
104920.00000 0.013314
104930.00000 0.013106
104940.00000 0.0129
104950.00000 0.012697
104960.00000 0.012498
104970.00000 0.012302
104980.00000 0.012109
104990.00000 0.01192
105000.00000 0.011733
105010.00000 0.01155
105020.00000 0.01137
105030.00000 0.011194
105040.00000 0.01102
105050.00000 0.01085
105060.00000 0.010684
105070.00000 0.010522
105080.00000 0.010364
105090.00000 0.010209
105100.00000 0.010056
105110.00000 0.009906
105120.00000 0.009759
105130.00000 0.009613
105140.00000 0.009469
105150.00000 0.009326
105160.00000 0.009185
105170.00000 0.009045
105180.00000 0.008908
105190.00000 0.008772
105200.00000 0.008639
105210.00000 0.008507
105220.00000 0.008378
105230.00000 0.008251
105240.00000 0.008127
105250.00000 0.008004
105260.00000 0.007885
105270.00000 0.007767
105280.00000 0.007653
105290.00000 0.007542
105300.00000 0.007433
105310.00000 0.007326
105320.00000 0.007221
105330.00000 0.007118
105340.00000 0.007017
105350.00000 0.006917
105360.00000 0.006818
105370.00000 0.00672
105380.00000 0.006623
105390.00000 0.006527
105400.00000 0.006432
105410.00000 0.006339
105420.00000 0.006247
105430.00000 0.006156
105440.00000 0.006067
105450.00000 0.00598
105460.00000 0.005894
105470.00000 0.005809
105480.00000 0.005726
105490.00000 0.005645
105500.00000 0.005566
105510.00000 0.005489
105520.00000 0.005413
105530.00000 0.00534
105540.00000 0.005267
105550.00000 0.005196
105560.00000 0.005125
105570.00000 0.005056
105580.00000 0.004987
105590.00000 0.004919
105600.00000 0.004851
105610.00000 0.004783
105620.00000 0.004716
105630.00000 0.004651
105640.00000 0.004585
105650.00000 0.004521
105660.00000 0.004458
105670.00000 0.004395
105680.00000 0.004334
105690.00000 0.004273
105700.00000 0.004214
105710.00000 0.004155
105720.00000 0.004098
105730.00000 0.004042
116303.00000 0.0
