# %ECSV 0.9
# ---
# datatype:
# - {name: wavelength, unit: Angstrom, datatype: float32}
# - {name: response, datatype: float32}
# meta: !!omap
# - {band_name: sdss_z}
# - {group_name: OSIRIS}
wavelength response
7299.00000 0.0
8110.00000 0.012536
8120.00000 0.017409
8130.00000 0.013185
8140.00000 0.019753
8150.00000 0.024756
8160.00000 0.032924
8170.00000 0.037086
8180.00000 0.048677
8190.00000 0.060191
8200.00000 0.07804
8210.00000 0.092075
8220.00000 0.111656
8230.00000 0.130781
8240.00000 0.147744
8250.00000 0.168483
8260.00000 0.192146
8270.00000 0.213134
8280.00000 0.234718
8290.00000 0.256845
8300.00000 0.282741
8310.00000 0.305096
8320.00000 0.333156
8330.00000 0.355516
8340.00000 0.380433
8350.00000 0.404383
8360.00000 0.429016
8370.00000 0.448981
8380.00000 0.475318
8390.00000 0.498203
8400.00000 0.522441
8410.00000 0.544771
8420.00000 0.567264
8430.00000 0.590117
8440.00000 0.609245
8450.00000 0.627111
8460.00000 0.647542
8470.00000 0.664648
8480.00000 0.682092
8490.00000 0.697267
8500.00000 0.716011
8510.00000 0.728661
8520.00000 0.743669
8530.00000 0.754212
8540.00000 0.768182
8550.00000 0.779587
8560.00000 0.791366
8570.00000 0.799616
8580.00000 0.810602
8590.00000 0.820339
8600.00000 0.829024
8610.00000 0.837354
8620.00000 0.844175
8630.00000 0.850207
8640.00000 0.85837
8650.00000 0.864733
8660.00000 0.870261
8670.00000 0.876143
8680.00000 0.880996
8690.00000 0.88659
8700.00000 0.891212
8710.00000 0.895061
8720.00000 0.899129
8730.00000 0.904572
8740.00000 0.907793
8750.00000 0.912447
8760.00000 0.914389
8770.00000 0.9188
8780.00000 0.922325
8790.00000 0.924225
8800.00000 0.927219
8810.00000 0.929873
8820.00000 0.932549
8830.00000 0.93437
8840.00000 0.936809
8850.00000 0.93776
8860.00000 0.94064
8870.00000 0.941908
8880.00000 0.943116
8890.00000 0.94547
8900.00000 0.946475
8910.00000 0.947974
8920.00000 0.949059
8930.00000 0.950177
8940.00000 0.952051
8950.00000 0.952748
8960.00000 0.95362
8970.00000 0.954663
8980.00000 0.955903
8990.00000 0.956183
9000.00000 0.957111
9010.00000 0.958175
9020.00000 0.959265
9030.00000 0.959713
9040.00000 0.960614
9050.00000 0.961346
9060.00000 0.961467
9070.00000 0.962332
9080.00000 0.963361
9090.00000 0.963926
9100.00000 0.963891
9110.00000 0.963862
9120.00000 0.96413
9130.00000 0.965125
9140.00000 0.96536
9150.00000 0.966324
9160.00000 0.966711
9170.00000 0.966944
9180.00000 0.967588
9190.00000 0.967407
9200.00000 0.967767
9210.00000 0.967713
9220.00000 0.96807
9230.00000 0.96841
9240.00000 0.968621
9250.00000 0.968957
9260.00000 0.96901
9270.00000 0.969181
9280.00000 0.969204
9290.00000 0.969987
9300.00000 0.96983
9310.00000 0.96991
9320.00000 0.969833
9330.00000 0.970404
9340.00000 0.970478
9350.00000 0.970478
9360.00000 0.970009
9370.00000 0.970445
9380.00000 0.97079
9390.00000 0.970485
9400.00000 0.970884
9410.00000 0.970943
9420.00000 0.971182
9430.00000 0.971442
9440.00000 0.971143
9450.00000 0.971111
9460.00000 0.971338
9470.00000 0.971152
9480.00000 0.971313
9490.00000 0.971096
9500.00000 0.971267
9510.00000 0.971186
9520.00000 0.971097
9530.00000 0.971236
9540.00000 0.971123
9550.00000 0.971619
9560.00000 0.971254
9570.00000 0.970765
9580.00000 0.971002
9590.00000 0.970739
9600.00000 0.970955
9610.00000 0.971044
9620.00000 0.970876
9630.00000 0.9707
9640.00000 0.971016
9650.00000 0.970837
9660.00000 0.971266
9670.00000 0.970582
9680.00000 0.970634
9690.00000 0.970545
9700.00000 0.970205
9710.00000 0.97035
9720.00000 0.97062
9730.00000 0.970246
9740.00000 0.970131
9750.00000 0.970007
9760.00000 0.969997
9770.00000 0.969868
9780.00000 0.969598
9790.00000 0.969705
9800.00000 0.969553
9810.00000 0.96912
9820.00000 0.969084
9830.00000 0.968774
9840.00000 0.969135
9850.00000 0.968532
9860.00000 0.968329
9870.00000 0.968257
9880.00000 0.968031
9890.00000 0.967961
9900.00000 0.968409
9910.00000 0.968033
9920.00000 0.968207
9930.00000 0.967544
9940.00000 0.968289
9950.00000 0.967441
9960.00000 0.966751
9970.00000 0.966901
9980.00000 0.966181
9990.00000 0.966333
10000.00000 0.966489
10010.00000 0.966044
10020.00000 0.966194
10030.00000 0.966022
10040.00000 0.965533
10050.00000 0.965505
10060.00000 0.965147
10070.00000 0.964787
10080.00000 0.964739
10090.00000 0.964397
10100.00000 0.963673
10110.00000 0.964136
10120.00000 0.963765
10130.00000 0.963385
10140.00000 0.963337
10150.00000 0.963308
10160.00000 0.963105
10170.00000 0.962526
10180.00000 0.962515
10190.00000 0.96191
10200.00000 0.962066
10210.00000 0.961662
10220.00000 0.961035
10230.00000 0.960642
10240.00000 0.960594
10250.00000 0.960775
10260.00000 0.960567
10270.00000 0.959754
10280.00000 0.960112
10290.00000 0.959873
10300.00000 0.959243
10310.00000 0.958786
10320.00000 0.958756
10330.00000 0.958057
10340.00000 0.958008
10350.00000 0.958401
10360.00000 0.957468
10370.00000 0.957202
10380.00000 0.956882
10390.00000 0.956138
10400.00000 0.955601
10410.00000 0.956232
10420.00000 0.955882
10430.00000 0.955598
10440.00000 0.955252
10450.00000 0.95493
10460.00000 0.955074
10470.00000 0.953465
10480.00000 0.953095
10490.00000 0.953508
10500.00000 0.953127
10510.00000 0.953527
10520.00000 0.952899
10530.00000 0.95168
10540.00000 0.951023
10550.00000 0.951701
10560.00000 0.95123
10570.00000 0.951281
10580.00000 0.950729
10590.00000 0.94886
10600.00000 0.950932
10610.00000 0.949441
10620.00000 0.949822
10630.00000 0.949074
10640.00000 0.949329
10650.00000 0.94801
10660.00000 0.94731
10670.00000 0.946648
10680.00000 0.946265
10690.00000 0.94625
10700.00000 0.946254
10710.00000 0.946976
10720.00000 0.945535
10730.00000 0.946267
10740.00000 0.945181
10750.00000 0.944802
10760.00000 0.943688
10770.00000 0.943655
10780.00000 0.94326
10790.00000 0.943289
10800.00000 0.942925
10810.00000 0.942177
10820.00000 0.942571
10830.00000 0.941361
10840.00000 0.94178
10850.00000 0.940496
10860.00000 0.94003
10870.00000 0.940447
10880.00000 0.940905
10890.00000 0.940423
10900.00000 0.939043
10910.00000 0.940427
10920.00000 0.939502
10930.00000 0.938038
10940.00000 0.938987
10950.00000 0.937892
10960.00000 0.937866
10970.00000 0.937257
10980.00000 0.937183
10990.00000 0.936645
11000.00000 0.936556
12100.00000 0.0
