# %ECSV 0.9
# ---
# datatype:
# - {name: wavelength, unit: Angstrom, datatype: float32}
# - {name: response, datatype: float32}
# meta: !!omap
# - {band_name: cfh5104}
# - {group_name: CFHT}
wavelength response
6372.00000 0.0
7080.00000 0.00426
7100.00000 0.00481
7120.00000 0.00537
7140.00000 0.006
7160.00000 0.00668
7180.00000 0.00742
7200.00000 0.00816
7220.00000 0.00894
7240.00000 0.0098
7260.00000 0.01068
7280.00000 0.01158
7300.00000 0.01254
7320.00000 0.01357
7340.00000 0.01463
7360.00000 0.01573
7380.00000 0.01689
7400.00000 0.01802
7420.00000 0.01904
7440.00000 0.01997
7460.00000 0.0208
7480.00000 0.02147
7500.00000 0.02188
7520.00000 0.02197
7540.00000 0.02156
7560.00000 0.02052
7580.00000 0.0188
7600.00000 0.01642
7620.00000 0.0134
7640.00000 0.01006
7660.00000 0.0069
7680.00000 0.00435
7700.00000 0.00256
7720.00000 0.00146
7740.00000 0.00081
7760.00000 0.00044
7780.00000 0.00027
7800.00000 0.00017
7820.00000 9e-05
7840.00000 8e-05
7860.00000 8e-05
7880.00000 5e-05
7900.00000 3e-05
7920.00000 3e-05
7940.00000 3e-05
7960.00000 3e-05
7980.00000 3e-05
8000.00000 3e-05
8020.00000 3e-05
8040.00000 3e-05
8060.00000 3e-05
8080.00000 3e-05
8100.00000 3e-05
8120.00000 3e-05
8140.00000 3e-05
8160.00000 3e-05
8180.00000 3e-05
8200.00000 3e-05
8220.00000 3e-05
8240.00000 3e-05
8260.00000 3e-05
8280.00000 3e-05
8300.00000 0.0
8320.00000 0.0
8340.00000 0.0
8360.00000 0.0
8380.00000 0.00015
8400.00000 0.00023
8420.00000 0.0
8440.00000 0.0
8460.00000 0.00014
8480.00000 0.0
8500.00000 0.0
8520.00000 6e-05
8540.00000 6e-05
8560.00000 0.00024
8580.00000 0.00061
8600.00000 0.00142
8620.00000 0.00162
8640.00000 0.002
8660.00000 0.00323
8680.00000 0.00523
8700.00000 0.00909
8720.00000 0.01543
8740.00000 0.02214
8760.00000 0.02692
8780.00000 0.03166
8800.00000 0.03928
8820.00000 0.05296
8840.00000 0.07419
8860.00000 0.09744
8880.00000 0.11192
8900.00000 0.11128
8920.00000 0.10092
8940.00000 0.09084
8960.00000 0.08629
8980.00000 0.08798
9000.00000 0.09763
9020.00000 0.11716
9040.00000 0.14693
9060.00000 0.18797
9080.00000 0.2354
9100.00000 0.27501
9120.00000 0.29253
9140.00000 0.28627
9160.00000 0.26808
9180.00000 0.25078
9200.00000 0.24127
9220.00000 0.24225
9240.00000 0.2543
9260.00000 0.27771
9280.00000 0.31061
9300.00000 0.35098
9320.00000 0.39508
9340.00000 0.43506
9360.00000 0.46382
9380.00000 0.47693
9400.00000 0.47568
9420.00000 0.46613
9440.00000 0.45467
9460.00000 0.44682
9480.00000 0.44493
9500.00000 0.44962
9520.00000 0.4612
9540.00000 0.47855
9560.00000 0.50107
9580.00000 0.52574
9600.00000 0.54901
9620.00000 0.56908
9640.00000 0.58482
9660.00000 0.59625
9680.00000 0.6031
9700.00000 0.60611
9720.00000 0.60681
9740.00000 0.60669
9760.00000 0.60658
9780.00000 0.6069
9800.00000 0.60797
9820.00000 0.61014
9840.00000 0.61349
9860.00000 0.61726
9880.00000 0.62166
9900.00000 0.62683
9920.00000 0.63219
9940.00000 0.63792
9960.00000 0.644
9980.00000 0.65038
10000.00000 0.65695
10020.00000 0.66356
10040.00000 0.67023
10060.00000 0.6763
10080.00000 0.68163
10100.00000 0.68622
10120.00000 0.68962
10140.00000 0.69202
10160.00000 0.69357
10180.00000 0.69415
10200.00000 0.69418
10220.00000 0.69423
10240.00000 0.69473
10260.00000 0.69583
10280.00000 0.69742
10300.00000 0.69965
10320.00000 0.70273
10340.00000 0.70639
10360.00000 0.71037
10380.00000 0.71481
10400.00000 0.71907
10420.00000 0.72285
10440.00000 0.72594
10460.00000 0.72829
10480.00000 0.7299
10500.00000 0.73048
10520.00000 0.73015
10540.00000 0.72903
10560.00000 0.72758
10580.00000 0.7258
10600.00000 0.72388
10620.00000 0.72231
10640.00000 0.7209
10660.00000 0.72028
10680.00000 0.72034
10700.00000 0.72099
10720.00000 0.72276
10740.00000 0.72522
10760.00000 0.7285
10780.00000 0.73248
10800.00000 0.737
10820.00000 0.74184
10840.00000 0.74692
10860.00000 0.75227
10880.00000 0.75745
10900.00000 0.76245
10920.00000 0.76704
10940.00000 0.77129
10960.00000 0.77489
10980.00000 0.77811
11000.00000 0.78067
11020.00000 0.78236
11040.00000 0.78381
11060.00000 0.78465
11080.00000 0.78491
11100.00000 0.785
11120.00000 0.78497
11140.00000 0.78505
11160.00000 0.78503
11180.00000 0.78468
11200.00000 0.78456
11220.00000 0.78503
11240.00000 0.78535
11260.00000 0.78568
11280.00000 0.78612
11300.00000 0.78673
11320.00000 0.78773
11340.00000 0.78839
11360.00000 0.78923
11380.00000 0.79002
11400.00000 0.79042
11420.00000 0.79063
11440.00000 0.79045
11460.00000 0.78986
11480.00000 0.78886
11500.00000 0.78738
11520.00000 0.78549
11540.00000 0.78328
11560.00000 0.78036
11580.00000 0.7771
11600.00000 0.77361
11620.00000 0.77003
11640.00000 0.76633
11660.00000 0.76253
11680.00000 0.75885
11700.00000 0.75522
11720.00000 0.75186
11740.00000 0.74916
11760.00000 0.74702
11780.00000 0.74548
11800.00000 0.74481
11820.00000 0.74501
11840.00000 0.74617
11860.00000 0.74828
11880.00000 0.75151
11900.00000 0.75574
11920.00000 0.76082
11940.00000 0.76678
11960.00000 0.77359
11980.00000 0.78111
12000.00000 0.789
12020.00000 0.79709
12040.00000 0.80534
12060.00000 0.81363
12080.00000 0.82143
12100.00000 0.8286
12120.00000 0.83504
12140.00000 0.84047
12160.00000 0.84468
12180.00000 0.84761
12200.00000 0.84923
12220.00000 0.84926
12240.00000 0.84785
12260.00000 0.84534
12280.00000 0.8416
12300.00000 0.83745
12320.00000 0.83308
12340.00000 0.82779
12360.00000 0.82234
12380.00000 0.8172
12400.00000 0.81221
12420.00000 0.80788
12440.00000 0.8044
12460.00000 0.80141
12480.00000 0.79919
12500.00000 0.79796
12520.00000 0.79755
12540.00000 0.79785
12560.00000 0.79874
12580.00000 0.80057
12600.00000 0.8033
12620.00000 0.8063
12640.00000 0.80952
12660.00000 0.81314
12680.00000 0.817
12700.00000 0.82144
12720.00000 0.82585
12740.00000 0.82944
12760.00000 0.83292
12780.00000 0.83636
12800.00000 0.83951
12820.00000 0.84224
12840.00000 0.84476
12860.00000 0.84705
12880.00000 0.84917
12900.00000 0.8513
12920.00000 0.85326
12940.00000 0.85516
12960.00000 0.85719
12980.00000 0.85927
13000.00000 0.86107
13020.00000 0.86299
13040.00000 0.86531
13060.00000 0.86771
13080.00000 0.87045
13100.00000 0.87352
13120.00000 0.87651
13140.00000 0.87941
13160.00000 0.88219
13180.00000 0.88463
13200.00000 0.88672
13220.00000 0.88829
13240.00000 0.88956
13260.00000 0.89055
13280.00000 0.89093
13300.00000 0.89091
13320.00000 0.89046
13340.00000 0.88936
13360.00000 0.88779
13380.00000 0.88597
13400.00000 0.88385
13420.00000 0.88141
13440.00000 0.87865
13460.00000 0.87585
13480.00000 0.87314
13500.00000 0.87064
13520.00000 0.86841
13540.00000 0.86664
13560.00000 0.86542
13580.00000 0.86359
13600.00000 0.86104
13620.00000 0.86067
13640.00000 0.8625
13660.00000 0.86372
13680.00000 0.86432
13700.00000 0.86496
13720.00000 0.867
13740.00000 0.86996
13760.00000 0.8725
13780.00000 0.8744
13800.00000 0.87686
13820.00000 0.88129
13840.00000 0.88467
13860.00000 0.88725
13880.00000 0.89043
13900.00000 0.89268
13920.00000 0.8936
13940.00000 0.89471
13960.00000 0.8969
13980.00000 0.89825
14000.00000 0.89879
14020.00000 0.89919
14040.00000 0.90016
14060.00000 0.90077
14080.00000 0.90076
14100.00000 0.90086
14120.00000 0.89986
14140.00000 0.89847
14160.00000 0.89717
14180.00000 0.89581
14200.00000 0.89497
14220.00000 0.89406
14240.00000 0.89284
14260.00000 0.89175
14280.00000 0.89098
14300.00000 0.89015
14320.00000 0.88983
14340.00000 0.89017
14360.00000 0.89043
14380.00000 0.89081
14400.00000 0.89153
14420.00000 0.89246
14440.00000 0.89349
14460.00000 0.89499
14480.00000 0.89667
14500.00000 0.89816
14520.00000 0.90001
14540.00000 0.90208
14560.00000 0.90417
14580.00000 0.90607
14600.00000 0.90794
14620.00000 0.90994
14640.00000 0.91164
14660.00000 0.91322
14680.00000 0.91463
14700.00000 0.91586
14720.00000 0.91719
14740.00000 0.91826
14760.00000 0.91908
14780.00000 0.91949
14800.00000 0.91962
14820.00000 0.91974
14840.00000 0.91968
14860.00000 0.91943
14880.00000 0.9189
14900.00000 0.9184
14920.00000 0.9178
14940.00000 0.91689
14960.00000 0.91605
14980.00000 0.91527
15000.00000 0.9144
15020.00000 0.91353
15040.00000 0.9126
15060.00000 0.91182
15080.00000 0.91119
15100.00000 0.91057
15120.00000 0.91002
15140.00000 0.90953
15160.00000 0.9093
15180.00000 0.9091
15200.00000 0.90915
15220.00000 0.90918
15240.00000 0.90912
15260.00000 0.90916
15280.00000 0.90923
15300.00000 0.90979
15320.00000 0.91039
15340.00000 0.91086
15360.00000 0.91154
15380.00000 0.91229
15400.00000 0.91319
15420.00000 0.91428
15440.00000 0.91537
15460.00000 0.91621
15480.00000 0.91705
15500.00000 0.91815
15520.00000 0.9192
15540.00000 0.9202
15560.00000 0.9211
15580.00000 0.92183
15600.00000 0.92274
15620.00000 0.92363
15640.00000 0.92427
15660.00000 0.92482
15680.00000 0.92532
15700.00000 0.92574
15720.00000 0.92601
15740.00000 0.92641
15760.00000 0.92661
15780.00000 0.92657
15800.00000 0.92651
15820.00000 0.92638
15840.00000 0.92628
15860.00000 0.92612
15880.00000 0.92578
15900.00000 0.9254
15920.00000 0.92505
15940.00000 0.92458
15960.00000 0.92418
15980.00000 0.92384
16000.00000 0.92329
16020.00000 0.92279
16040.00000 0.92223
16060.00000 0.92175
16080.00000 0.92172
16100.00000 0.92139
16120.00000 0.92091
16140.00000 0.92076
16160.00000 0.92072
16180.00000 0.92079
16200.00000 0.92091
16220.00000 0.92105
16240.00000 0.92105
16260.00000 0.92117
16280.00000 0.92152
16300.00000 0.92177
16320.00000 0.9223
16340.00000 0.92273
16360.00000 0.9232
16380.00000 0.924
16400.00000 0.92464
16420.00000 0.92551
16440.00000 0.92622
16460.00000 0.927
16480.00000 0.92807
16500.00000 0.92874
16520.00000 0.92937
16540.00000 0.9299
16560.00000 0.93047
16580.00000 0.93123
16600.00000 0.93187
16620.00000 0.93243
16640.00000 0.93272
16660.00000 0.93286
16680.00000 0.93311
16700.00000 0.9333
16720.00000 0.93318
16740.00000 0.93286
16760.00000 0.93245
16780.00000 0.93196
16800.00000 0.93164
16820.00000 0.93129
16840.00000 0.93076
16860.00000 0.93024
16880.00000 0.92966
16900.00000 0.929
16920.00000 0.92824
16940.00000 0.92738
16960.00000 0.92686
16980.00000 0.92644
17000.00000 0.92592
17020.00000 0.92531
17040.00000 0.92482
17060.00000 0.92467
17080.00000 0.92453
17100.00000 0.92448
17120.00000 0.92456
17140.00000 0.92453
17160.00000 0.92484
17180.00000 0.92532
17200.00000 0.92589
17220.00000 0.92648
17240.00000 0.92723
17260.00000 0.92818
17280.00000 0.92905
17300.00000 0.93022
17320.00000 0.93124
17340.00000 0.93207
17360.00000 0.93341
17380.00000 0.93471
17400.00000 0.93568
17420.00000 0.93651
17440.00000 0.93747
17460.00000 0.93845
17480.00000 0.93907
17500.00000 0.93962
17520.00000 0.94002
17540.00000 0.94023
17560.00000 0.94016
17580.00000 0.94
17600.00000 0.93983
17620.00000 0.93953
17640.00000 0.93903
17660.00000 0.93817
17680.00000 0.93756
17700.00000 0.93668
17720.00000 0.93564
17740.00000 0.9352
17760.00000 0.93466
17780.00000 0.93384
17800.00000 0.93311
17820.00000 0.93221
17840.00000 0.93155
17860.00000 0.93115
17880.00000 0.93082
17900.00000 0.931
17920.00000 0.93149
17940.00000 0.93193
17960.00000 0.93219
17980.00000 0.9328
18000.00000 0.93384
18020.00000 0.93489
18040.00000 0.93579
18060.00000 0.93719
18080.00000 0.93886
18100.00000 0.94031
18120.00000 0.94168
18140.00000 0.9416
18160.00000 0.94218
18180.00000 0.94392
18200.00000 0.94392
18220.00000 0.94388
18240.00000 0.94286
18260.00000 0.94022
18280.00000 0.93863
18300.00000 0.93584
18320.00000 0.93141
18340.00000 0.92778
18360.00000 0.92522
18380.00000 0.92154
18400.00000 0.91629
18420.00000 0.91129
18440.00000 0.90746
18460.00000 0.90454
18480.00000 0.89806
18500.00000 0.88951
18520.00000 0.88429
18540.00000 0.8835
18560.00000 0.88251
18580.00000 0.87833
18600.00000 0.87653
18620.00000 0.87843
18640.00000 0.88307
18660.00000 0.89076
18680.00000 0.8988
18700.00000 0.90361
18720.00000 0.91103
18740.00000 0.9216
18760.00000 0.92865
18780.00000 0.93167
18800.00000 0.92802
18820.00000 0.91682
18840.00000 0.89787
18860.00000 0.86835
18880.00000 0.82603
18900.00000 0.77026
18920.00000 0.7052
18940.00000 0.63341
18960.00000 0.55785
18980.00000 0.48706
19000.00000 0.41454
19020.00000 0.34778
19040.00000 0.2944
19060.00000 0.244
19080.00000 0.20175
19100.00000 0.1687
19120.00000 0.14056
19140.00000 0.11656
19160.00000 0.09706
19180.00000 0.08182
19200.00000 0.06892
19220.00000 0.05809
19240.00000 0.04912
19260.00000 0.04173
19280.00000 0.03569
19300.00000 0.0305
19320.00000 0.02614
19340.00000 0.02257
19360.00000 0.01973
19380.00000 0.01714
19400.00000 0.01479
19420.00000 0.01297
19440.00000 0.01135
19460.00000 0.01009
19480.00000 0.00899
19500.00000 0.00781
19520.00000 0.00699
19540.00000 0.00645
19560.00000 0.00575
19580.00000 0.00516
19600.00000 0.0047
19620.00000 0.00426
21582.00000 0.0
