# %ECSV 0.9
# ---
# datatype:
# - {name: wavelength, unit: Angstrom, datatype: float32}
# - {name: response, datatype: float32}
# meta: !!omap
# - {band_name: cfh6217}
# - {group_name: CFHT}
wavelength response
17350.19922 0.0
19278.00000 0.03123
19280.00000 0.03133
19282.00000 0.03145
19284.00000 0.03156
19286.00000 0.03168
19288.00000 0.03178
19290.00000 0.03192
19292.00000 0.03204
19294.00000 0.03218
19296.00000 0.03232
19298.00000 0.03244
19300.00000 0.03258
19302.00000 0.03273
19304.00000 0.03288
19306.00000 0.03304
19308.00000 0.03319
19310.00000 0.03334
19312.00000 0.03351
19314.00000 0.03366
19316.00000 0.03383
19318.00000 0.034
19320.00000 0.03416
19322.00000 0.03435
19324.00000 0.03453
19326.00000 0.03471
19328.00000 0.0349
19330.00000 0.0351
19332.00000 0.03529
19334.00000 0.03551
19336.00000 0.03572
19338.00000 0.03593
19340.00000 0.03616
19342.00000 0.03639
19344.00000 0.03662
19346.00000 0.03688
19348.00000 0.03712
19350.00000 0.03738
19352.00000 0.03764
19354.00000 0.03793
19356.00000 0.03822
19358.00000 0.03851
19360.00000 0.03882
19362.00000 0.03914
19364.00000 0.03947
19366.00000 0.03981
19368.00000 0.04013
19370.00000 0.04048
19372.00000 0.04085
19374.00000 0.04123
19376.00000 0.04163
19378.00000 0.04204
19380.00000 0.04247
19382.00000 0.04289
19384.00000 0.04335
19386.00000 0.04379
19388.00000 0.04428
19390.00000 0.04477
19392.00000 0.04527
19394.00000 0.04579
19396.00000 0.04633
19398.00000 0.04688
19400.00000 0.04744
19402.00000 0.04805
19404.00000 0.04866
19406.00000 0.0493
19408.00000 0.04996
19410.00000 0.05064
19412.00000 0.05136
19414.00000 0.05209
19416.00000 0.05284
19418.00000 0.05363
19420.00000 0.05444
19422.00000 0.0553
19424.00000 0.05615
19426.00000 0.05707
19428.00000 0.05801
19430.00000 0.05901
19432.00000 0.06003
19434.00000 0.06108
19436.00000 0.06218
19438.00000 0.06332
19440.00000 0.0645
19442.00000 0.06573
19444.00000 0.067
19446.00000 0.06834
19448.00000 0.06973
19450.00000 0.07117
19452.00000 0.07266
19454.00000 0.0742
19456.00000 0.07581
19458.00000 0.07748
19460.00000 0.07922
19462.00000 0.08102
19464.00000 0.08289
19466.00000 0.08484
19468.00000 0.08684
19470.00000 0.08891
19472.00000 0.09108
19474.00000 0.09332
19476.00000 0.09566
19478.00000 0.09808
19480.00000 0.1006
19482.00000 0.10323
19484.00000 0.10593
19486.00000 0.10872
19488.00000 0.11163
19490.00000 0.11465
19492.00000 0.11778
19494.00000 0.121
19496.00000 0.12437
19498.00000 0.12784
19500.00000 0.13145
19502.00000 0.13518
19504.00000 0.13901
19506.00000 0.14297
19508.00000 0.14706
19510.00000 0.15129
19512.00000 0.15562
19514.00000 0.16011
19516.00000 0.1647
19518.00000 0.16942
19520.00000 0.17429
19522.00000 0.17924
19524.00000 0.18433
19526.00000 0.18954
19528.00000 0.19484
19530.00000 0.20024
19532.00000 0.20575
19534.00000 0.21135
19536.00000 0.21706
19538.00000 0.22282
19540.00000 0.22868
19542.00000 0.23459
19544.00000 0.24057
19546.00000 0.24661
19548.00000 0.25269
19550.00000 0.25883
19552.00000 0.26497
19554.00000 0.27113
19556.00000 0.27733
19558.00000 0.28351
19560.00000 0.2897
19562.00000 0.29588
19564.00000 0.30202
19566.00000 0.30811
19568.00000 0.31413
19570.00000 0.32011
19572.00000 0.326
19574.00000 0.33183
19576.00000 0.33754
19578.00000 0.34314
19580.00000 0.34863
19582.00000 0.35397
19584.00000 0.35919
19586.00000 0.36429
19588.00000 0.3692
19590.00000 0.37395
19592.00000 0.37852
19594.00000 0.3829
19596.00000 0.38713
19598.00000 0.39113
19600.00000 0.39497
19602.00000 0.39861
19604.00000 0.40204
19606.00000 0.40526
19608.00000 0.40828
19610.00000 0.41106
19612.00000 0.41364
19614.00000 0.41599
19616.00000 0.41815
19618.00000 0.42009
19620.00000 0.42181
19622.00000 0.42332
19624.00000 0.42465
19626.00000 0.42574
19628.00000 0.42662
19630.00000 0.42732
19632.00000 0.42783
19634.00000 0.42813
19636.00000 0.42827
19638.00000 0.42821
19640.00000 0.42799
19642.00000 0.42758
19644.00000 0.42706
19646.00000 0.42635
19648.00000 0.42549
19650.00000 0.4245
19652.00000 0.42336
19654.00000 0.42209
19656.00000 0.4207
19658.00000 0.41919
19660.00000 0.4176
19662.00000 0.41586
19664.00000 0.41405
19666.00000 0.41214
19668.00000 0.41013
19670.00000 0.40804
19672.00000 0.40587
19674.00000 0.40366
19676.00000 0.40134
19678.00000 0.39897
19680.00000 0.39653
19682.00000 0.39404
19684.00000 0.39151
19686.00000 0.38893
19688.00000 0.38629
19690.00000 0.38362
19692.00000 0.38091
19694.00000 0.37814
19696.00000 0.37537
19698.00000 0.37253
19700.00000 0.36969
19702.00000 0.36679
19704.00000 0.36388
19706.00000 0.36092
19708.00000 0.35794
19710.00000 0.35493
19712.00000 0.3519
19714.00000 0.34885
19716.00000 0.34575
19718.00000 0.34262
19720.00000 0.33948
19722.00000 0.3363
19724.00000 0.33308
19726.00000 0.32985
19728.00000 0.3266
19730.00000 0.3233
19732.00000 0.31999
19734.00000 0.31665
19736.00000 0.31331
19738.00000 0.30991
19740.00000 0.3065
19742.00000 0.30305
19744.00000 0.29959
19746.00000 0.29608
19748.00000 0.29256
19750.00000 0.289
19752.00000 0.28543
19754.00000 0.28183
19756.00000 0.2782
19758.00000 0.27457
19760.00000 0.27087
19762.00000 0.26718
19764.00000 0.26344
19766.00000 0.25972
19768.00000 0.25595
19770.00000 0.2522
19772.00000 0.24838
19774.00000 0.24455
19776.00000 0.24074
19778.00000 0.23691
19780.00000 0.23308
19782.00000 0.22923
19784.00000 0.22539
19786.00000 0.22154
19788.00000 0.2177
19790.00000 0.21385
19792.00000 0.21007
19794.00000 0.20625
19796.00000 0.20247
19798.00000 0.19868
19800.00000 0.19493
19802.00000 0.19119
19804.00000 0.18752
19806.00000 0.18385
19808.00000 0.18022
19810.00000 0.17661
19812.00000 0.17303
19814.00000 0.16951
19816.00000 0.16602
19818.00000 0.16258
19820.00000 0.15918
19822.00000 0.15584
19824.00000 0.1525
19826.00000 0.14925
19828.00000 0.14603
19830.00000 0.14287
19832.00000 0.13976
19834.00000 0.1367
19836.00000 0.1337
19838.00000 0.13074
19840.00000 0.12784
19842.00000 0.125
19844.00000 0.12221
19846.00000 0.11948
19848.00000 0.11681
19850.00000 0.1142
19852.00000 0.11163
19854.00000 0.10915
19856.00000 0.1067
19858.00000 0.10432
19860.00000 0.10201
19862.00000 0.09975
19864.00000 0.09755
19866.00000 0.09541
19868.00000 0.09332
19870.00000 0.09131
19872.00000 0.08936
19874.00000 0.08746
19876.00000 0.08562
19878.00000 0.08383
19880.00000 0.08206
19882.00000 0.08038
19884.00000 0.07875
19886.00000 0.07715
19888.00000 0.07561
19890.00000 0.07411
19892.00000 0.07265
19894.00000 0.07124
19896.00000 0.06987
19898.00000 0.06856
19900.00000 0.06726
19902.00000 0.06602
19904.00000 0.06482
19906.00000 0.06363
19908.00000 0.0625
19910.00000 0.06142
19912.00000 0.06036
19914.00000 0.05934
19916.00000 0.05833
19918.00000 0.05739
19920.00000 0.05646
19922.00000 0.05559
19924.00000 0.05473
19926.00000 0.05389
19928.00000 0.05309
19930.00000 0.05231
19932.00000 0.05156
19934.00000 0.05083
19936.00000 0.05011
19938.00000 0.04942
19940.00000 0.04875
19942.00000 0.04811
19944.00000 0.04749
19946.00000 0.04689
19948.00000 0.04631
19950.00000 0.04575
19952.00000 0.0452
19954.00000 0.04466
19956.00000 0.04414
19958.00000 0.04366
19960.00000 0.04317
19962.00000 0.04271
19964.00000 0.04227
19966.00000 0.04182
19968.00000 0.04141
19970.00000 0.041
19972.00000 0.04062
19974.00000 0.04024
19976.00000 0.03987
19978.00000 0.03951
19980.00000 0.03917
19982.00000 0.03885
19984.00000 0.03853
19986.00000 0.03822
19988.00000 0.0379
19990.00000 0.03761
19992.00000 0.03732
19994.00000 0.03703
19996.00000 0.03676
19998.00000 0.03651
20000.00000 0.03625
20002.00000 0.036
20004.00000 0.03575
20006.00000 0.03551
20008.00000 0.03529
20010.00000 0.03506
20012.00000 0.03484
20014.00000 0.03462
20016.00000 0.03442
20018.00000 0.03421
20020.00000 0.03404
20022.00000 0.03384
20024.00000 0.03366
20026.00000 0.03348
20028.00000 0.03331
20030.00000 0.03313
20032.00000 0.03297
20034.00000 0.03281
20036.00000 0.03267
20038.00000 0.03252
20040.00000 0.03235
20042.00000 0.03221
20044.00000 0.03206
20046.00000 0.03194
20048.00000 0.0318
20050.00000 0.03166
20052.00000 0.03154
20054.00000 0.0314
20056.00000 0.03128
20058.00000 0.03117
20060.00000 0.03105
20062.00000 0.03093
22068.19922 0.0
