# %ECSV 0.9
# ---
# datatype:
# - {name: wavelength, unit: Angstrom, datatype: float32}
# - {name: response, datatype: float32}
# meta: !!omap
# - {band_name: F814W_77}
# - {group_name: ACS_WFC}
wavelength response
6105.10498 0.0
6783.45020 0.00198773
6784.12012 0.00202731
6784.77979 0.00206694
6785.43994 0.00210613
6786.10010 0.00214577
6786.75977 0.00218542
6787.41992 0.00222484
6788.08984 0.00226454
6788.75000 0.00230421
6789.41016 0.00234369
6790.06982 0.0023834
6790.72998 0.00242261
6791.39014 0.00246226
6792.06006 0.00250192
6792.72021 0.00254158
6793.37988 0.00258128
6794.04980 0.00262098
6794.70020 0.00266022
6795.37012 0.00269994
6796.02979 0.00273943
6796.68994 0.00277915
6797.35986 0.00281891
6798.02002 0.00285842
6798.68018 0.0028982
6799.35010 0.00293798
6800.00000 0.00297729
6800.66992 0.00301707
6801.33008 0.00305686
6802.00000 0.00309664
6802.66016 0.00313623
6803.31982 0.00317583
6803.97998 0.00321564
6804.64990 0.00325548
6805.31006 0.00329509
6805.97021 0.00333494
6806.64014 0.00337459
6807.29980 0.00341446
6807.97021 0.00345433
6808.62012 0.0034938
6809.29004 0.00353368
6809.95020 0.00357359
6810.62012 0.00361344
6811.27979 0.00365329
6811.93994 0.0036927
6812.60986 0.00373256
6813.27002 0.00377245
6813.93994 0.00381211
6814.60010 0.00385198
6815.27002 0.00389188
6815.93018 0.00393158
6816.60010 0.00397149
6817.25977 0.00401096
6817.91992 0.00405088
6818.58984 0.0040908
6819.25000 0.00413076
6819.91992 0.00417072
6820.58008 0.00421066
6821.25000 0.00425065
6821.91016 0.00429087
6822.58008 0.00433086
6823.24023 0.00437113
6823.91016 0.00441137
6824.56982 0.00445141
6825.24023 0.0044917
6825.91016 0.004532
6826.56982 0.00457186
6827.22998 0.00461217
6827.89990 0.00465253
6828.56982 0.00469286
6829.22998 0.00473323
6829.89990 0.00477313
6830.56006 0.00481345
6831.22998 0.00485377
6831.89014 0.0048939
6832.56006 0.00493423
6833.22998 0.00497437
6833.89014 0.00501472
6834.56006 0.00505511
6835.22021 0.00509506
6835.89014 0.00513546
6836.56006 0.00517587
6837.22998 0.00521629
6837.89014 0.00525671
6838.54980 0.00529669
6839.22021 0.00533716
6839.89014 0.00537764
6840.56006 0.00541762
6841.22021 0.00545777
6841.89014 0.00549793
6842.56006 0.00553788
6843.22998 0.00557805
6843.89014 0.0056178
6844.56006 0.00565797
6845.22998 0.00569817
6845.89014 0.00573838
6846.56006 0.00577858
6847.22021 0.00581835
6847.89014 0.00585857
6848.56006 0.00589881
6849.22998 0.00593883
6849.89990 0.00597906
6850.56982 0.00601958
6851.22998 0.00605991
6851.89990 0.00610049
6852.56006 0.00614062
6853.22998 0.00618124
6853.89990 0.00622184
6854.56982 0.00626247
6855.24023 0.00630311
6855.91016 0.00634375
6856.56982 0.00638393
6857.25000 0.00642462
6857.91016 0.00646505
6858.58008 0.00650575
6859.25000 0.00654643
6859.91992 0.00658694
6860.58984 0.00662788
6861.25977 0.00666892
6861.91992 0.00670946
6862.58984 0.00675052
6863.25977 0.00679157
6863.93994 0.00683266
6864.60010 0.00687372
6865.27002 0.00691437
6865.93994 0.00695547
6866.60986 0.0069966
6867.27979 0.0070375
6867.95020 0.00707867
6868.62012 0.00711961
6869.29004 0.00716078
6869.95996 0.00720198
6870.62012 0.0072424
6871.29004 0.00728325
6871.97021 0.0073241
6872.64014 0.00736496
6873.31006 0.00740587
6873.97021 0.00744631
6874.64990 0.00748722
6875.31982 0.0075281
6875.97998 0.00756883
6876.66016 0.00760976
6877.33008 0.00765069
6878.00000 0.00769143
6878.66992 0.00773236
6879.33008 0.00777289
6880.00977 0.00781386
6880.68018 0.00792148
6881.35010 0.00821412
6882.02002 0.00850701
6882.68994 0.00879806
6883.35986 0.00908937
6884.02979 0.00938243
6884.70020 0.00967385
6885.37988 0.00996681
6886.04980 0.01026
6886.72021 0.0105518
6887.39014 0.0108452
6888.06006 0.0111387
6888.72998 0.011429
6889.39990 0.0117225
6890.06982 0.0120232
6890.75000 0.0123794
6891.41992 0.0127357
6892.08984 0.0130882
6892.75977 0.0134446
6893.43994 0.0138012
6894.10010 0.0141559
6894.77979 0.0145123
6895.45020 0.0148673
6896.12012 0.0152241
6896.79980 0.015581
6897.45996 0.015934
6898.14014 0.0162909
6898.81006 0.0166482
6899.47998 0.0170052
6900.16016 0.0174109
6900.83008 0.0179681
6901.50000 0.0185314
6902.16992 0.0190949
6902.85010 0.0196555
6903.52002 0.0202191
6904.18994 0.0207831
6904.85986 0.021344
6905.54004 0.0219082
6906.20996 0.022466
6906.87988 0.0230304
6907.56006 0.0235952
6908.22998 0.0241598
6908.91016 0.0247248
6909.58008 0.0252895
6910.25000 0.0259004
6910.93018 0.0266058
6911.60010 0.0273073
6912.27002 0.0280131
6912.95020 0.0287197
6913.62012 0.0294224
6914.29980 0.030129
6914.95996 0.030828
6915.64014 0.0315356
6916.31006 0.0322434
6916.99023 0.0329519
6917.66992 0.0336601
6918.33984 0.034365
6919.00977 0.0350701
6919.68994 0.035779
6920.35986 0.036596
6921.04004 0.0375157
6921.70996 0.0384361
6922.39014 0.0393507
6923.06006 0.0402713
6923.74023 0.0411914
6924.41016 0.0421016
6925.08008 0.0430225
6925.75977 0.0439436
6926.43994 0.0448647
6927.10986 0.0457859
6927.77979 0.0466972
6928.45996 0.0476194
6929.14014 0.0485409
6929.81006 0.0494579
6930.49023 0.0505586
6931.16016 0.0517219
6931.83984 0.052893
6932.52002 0.0540632
6933.18994 0.0552208
6933.85986 0.0563911
6934.54004 0.0575624
6935.22021 0.0587337
6935.89990 0.0599051
6936.56982 0.061063
6937.24023 0.0622353
6937.91992 0.0634068
6938.60010 0.0645726
6939.27002 0.0657451
6939.95020 0.0669169
6940.62988 0.0682737
6941.31006 0.069654
6941.97998 0.0710178
6942.64990 0.0723978
6943.33008 0.0737791
6944.00977 0.0751607
6944.68994 0.0765415
6945.37012 0.0779237
6946.04004 0.0792912
6946.72021 0.080674
6947.39014 0.0820491
6948.06982 0.0834333
6948.75000 0.084817
6949.43018 0.0861939
6950.10986 0.0876295
6950.77979 0.0893385
6951.45996 0.0910277
6952.14014 0.0927377
6952.81006 0.0944466
6953.49023 0.0961565
6954.16992 0.0978554
6954.85010 0.0995557
6955.52979 0.101266
6956.20996 0.102975
6956.87988 0.104677
6957.56006 0.106387
6958.24023 0.108088
6958.91992 0.109798
6959.60010 0.111509
6960.27002 0.113239
6960.95020 0.11505
6961.62988 0.11686
6962.31006 0.118671
6962.99023 0.120482
6963.66016 0.122273
6964.35010 0.124084
6965.02002 0.125895
6965.70020 0.127697
6966.37988 0.129509
6967.06006 0.131321
6967.74023 0.133122
6968.41992 0.134935
6969.10010 0.136728
6969.77979 0.138541
6970.45996 0.140547
6971.14014 0.142646
6971.81982 0.144747
6972.49023 0.146823
6973.16992 0.148925
6973.85010 0.151026
6974.52979 0.153117
6975.22021 0.15522
6975.89990 0.157324
6976.56982 0.159416
6977.25977 0.16152
6977.93018 0.163602
6978.60986 0.165706
6979.29004 0.167812
6979.97998 0.169918
6980.66016 0.172304
6981.33984 0.174705
6982.02002 0.177077
6982.70020 0.179477
6983.37988 0.181866
6984.06006 0.184269
6984.74023 0.186672
6985.41992 0.189063
6986.10010 0.191467
6986.77979 0.193873
6987.45996 0.196252
6988.14014 0.19866
6988.83008 0.201067
6989.50977 0.203477
6990.18994 0.205333
6990.87012 0.205765
6991.54980 0.206201
6992.22998 0.206638
6992.91016 0.207072
6993.60010 0.20751
6994.27979 0.207944
6994.95996 0.208381
6995.64014 0.208818
6996.31982 0.209251
6997.00000 0.209688
6997.68994 0.210125
6998.37012 0.210563
6999.04980 0.211
6999.72998 0.211433
7000.41016 0.213437
7001.10010 0.216458
7001.77979 0.219464
7002.45996 0.222486
7003.14990 0.225507
7003.83008 0.228513
7004.50977 0.231537
7005.18994 0.234525
7005.87012 0.237549
7006.56006 0.240572
7007.24023 0.243595
7007.93018 0.24662
7008.60986 0.249643
7009.29004 0.252634
7009.97998 0.255659
7010.66016 0.258068
7011.33984 0.260469
7012.02979 0.26287
7012.70996 0.265258
7013.39014 0.267659
7014.08008 0.270061
7014.75977 0.272437
7015.43994 0.274839
7016.12988 0.277242
7016.81006 0.279645
7017.50000 0.28205
7018.18018 0.284426
7018.85986 0.28683
7019.54980 0.289236
7020.22998 0.291915
7020.91992 0.295176
7021.60010 0.298419
7022.27979 0.30168
7022.97021 0.304942
7023.64990 0.308169
7024.33984 0.311434
7025.02002 0.3147
7025.70996 0.317965
7026.39990 0.321231
7027.06982 0.32446
7027.75977 0.327729
7028.45020 0.330996
7029.12988 0.334247
7029.81982 0.337517
7030.50977 0.340475
7031.18994 0.343305
7031.87988 0.346151
7032.56006 0.348966
7033.24023 0.351815
7033.93018 0.354664
7034.62012 0.357511
7035.29980 0.360361
7035.97998 0.363179
7036.66992 0.366031
7037.35986 0.368881
7038.04004 0.371716
7038.72998 0.37457
7039.41992 0.377423
7040.10010 0.380258
7040.79004 0.383094
7041.47021 0.385899
7042.16016 0.388736
7042.85010 0.391575
7043.54004 0.394411
7044.22021 0.397249
7044.91016 0.400088
7045.58984 0.402894
7046.27979 0.405733
7046.97021 0.408556
7047.64990 0.411394
7048.33984 0.414235
7049.02979 0.41706
7049.72021 0.419898
7050.41016 0.422618
7051.08984 0.425225
7051.77979 0.427864
7052.47021 0.430501
7053.14990 0.433138
7053.83984 0.435776
7054.52979 0.438386
7055.22021 0.441025
7055.89990 0.443664
7056.58984 0.446289
7057.27979 0.448929
7057.97021 0.451555
7058.64990 0.454194
7059.35010 0.456836
7060.02979 0.459461
7060.72021 0.462433
7061.41016 0.465403
7062.10010 0.468374
7062.79004 0.471347
7063.47021 0.474283
7064.16016 0.477255
7064.85010 0.480228
7065.54004 0.483183
7066.22998 0.486155
7066.91992 0.489126
7067.60010 0.49208
7068.29980 0.495053
7068.97998 0.497992
7069.66992 0.500962
7070.35986 0.503845
7071.04980 0.506645
7071.74023 0.509448
7072.43018 0.512234
7073.12012 0.515019
7073.81006 0.517822
7074.49023 0.520609
7075.18994 0.523413
7075.87988 0.526218
7076.56006 0.529006
7077.25977 0.53181
7077.95020 0.534617
7078.62988 0.53739
7079.31982 0.540197
7080.02002 0.542998
7080.70996 0.54552
7081.39990 0.548042
7082.08008 0.550536
7082.77979 0.553059
7083.47021 0.555583
7084.16016 0.558092
7084.85010 0.560617
7085.54004 0.563126
7086.22998 0.565653
7086.91992 0.568179
7087.60986 0.570675
7088.29980 0.573203
7088.99023 0.575729
7089.68994 0.578257
7090.37988 0.580368
7091.06006 0.582113
7091.75977 0.583878
7092.45020 0.585644
7093.14014 0.587399
7093.83008 0.589164
7094.52002 0.590928
7095.20996 0.592684
7095.91016 0.594449
7096.58984 0.596195
7097.29004 0.59796
7097.97998 0.599724
7098.66992 0.601489
7099.37012 0.603254
7100.06006 0.605082
7100.75000 0.607552
7101.43994 0.610049
7102.12988 0.612534
7102.81982 0.615032
7103.52002 0.617531
7104.20996 0.620014
7104.89990 0.622512
7105.58984 0.624982
7106.27979 0.627481
7106.97998 0.629978
7107.66992 0.632478
7108.37012 0.634977
7109.06006 0.637462
7109.75000 0.639947
7110.43994 0.641688
7111.14014 0.642996
7111.83008 0.644311
7112.52002 0.645626
7113.22021 0.646935
7113.91016 0.64825
7114.60986 0.649566
7115.29004 0.650868
7115.99023 0.652184
7116.68994 0.653501
7117.37988 0.654818
7118.08008 0.656134
7118.75977 0.657437
7119.45996 0.658753
7120.14990 0.660251
7120.85010 0.662365
7121.54004 0.664491
7122.22998 0.666606
7122.93018 0.668733
7123.62988 0.670862
7124.31006 0.672965
7125.00977 0.675093
7125.70996 0.677223
7126.39990 0.679352
7127.10010 0.681481
7127.79004 0.683589
7128.49023 0.685718
7129.18018 0.687849
7129.87988 0.689969
7130.56982 0.691303
7131.27002 0.692463
7131.95996 0.693617
7132.66016 0.694777
7133.35010 0.695925
7134.04980 0.697085
7134.74023 0.698245
7135.43994 0.699405
7136.14014 0.700565
7136.83008 0.701726
7137.52002 0.702875
7138.22021 0.704035
7138.91016 0.70519
7139.60986 0.70635
7140.31006 0.708022
7141.00000 0.710317
7141.70020 0.712626
7142.39990 0.714935
7143.08984 0.717219
7143.79004 0.71953
7144.49023 0.72184
7145.18994 0.724149
7145.87988 0.72646
7146.56982 0.728743
7147.27002 0.731053
7147.97021 0.733365
7148.66016 0.735663
7149.35986 0.737975
7150.06006 0.740115
7150.75977 0.740527
7151.45996 0.740938
7152.14990 0.741345
7152.85010 0.741757
7153.54004 0.742168
7154.24023 0.74258
7154.93994 0.742991
7155.62988 0.743398
7156.33008 0.743809
7157.02979 0.744222
7157.72998 0.74463
7158.43018 0.74504
7159.12988 0.74545
7159.81982 0.74586
7160.52002 0.746922
7161.20996 0.74819
7161.91016 0.749472
7162.60986 0.750754
7163.31006 0.752038
7164.00977 0.753322
7164.70996 0.754605
7165.41016 0.755875
7166.10986 0.75716
7166.79980 0.758436
7167.50000 0.75972
7168.20020 0.761004
7168.89990 0.762283
7169.60010 0.763568
7170.29004 0.765095
7170.99023 0.76699
7171.68994 0.768883
7172.39990 0.770778
7173.10010 0.772673
7173.79980 0.774569
7174.49023 0.776442
7175.18994 0.778338
7175.89014 0.780222
7176.58984 0.782118
7177.29004 0.784016
7177.99023 0.7859
7178.68994 0.787797
7179.39014 0.789693
7180.08984 0.79148
7180.79004 0.792661
7181.49023 0.793842
7182.18994 0.795023
7182.89014 0.796204
7183.58984 0.797371
7184.29004 0.798552
7184.99023 0.799734
7185.68994 0.80091
7186.39014 0.802092
7187.08984 0.803267
7187.79004 0.804449
7188.49023 0.805631
7189.18994 0.806801
7189.89014 0.807984
7190.58984 0.809955
7191.29980 0.812069
7192.00000 0.814185
7192.68994 0.816275
7193.39990 0.81839
7194.10010 0.820507
7194.79980 0.82261
7195.50000 0.824727
7196.20996 0.826844
7196.89990 0.828948
7197.60986 0.831064
7198.29980 0.833159
7199.00977 0.835276
7199.70996 0.837394
7200.41016 0.838732
7201.12012 0.839527
7201.81982 0.840321
7202.52002 0.841106
7203.22021 0.8419
7203.91992 0.842689
7204.62012 0.843483
7205.33008 0.844278
7206.02979 0.845068
7206.72998 0.845863
7207.43994 0.846658
7208.14014 0.847444
7208.83984 0.848239
7209.54004 0.849033
7210.25000 0.84989
7210.95020 0.850863
7211.64990 0.851823
7212.35010 0.852795
7213.06006 0.853768
7213.75977 0.854732
7214.47021 0.855704
7215.16992 0.85667
7215.87012 0.857642
7216.58008 0.858612
7217.27002 0.859572
7217.97998 0.860544
7218.68018 0.861514
7219.39014 0.862485
7220.10010 0.863426
7220.79004 0.864171
7221.50000 0.864923
7222.20020 0.865674
7222.91016 0.866421
7223.60986 0.867173
7224.31982 0.867925
7225.02002 0.868671
7225.72998 0.869423
7226.41992 0.870166
7227.12988 0.870918
7227.83984 0.871668
7228.54004 0.87242
7229.25000 0.873171
7229.95020 0.873915
7230.64990 0.875385
7231.35986 0.876915
7232.06006 0.878436
7232.77002 0.879965
7233.47998 0.881495
7234.18018 0.883015
7234.89014 0.884545
7235.58984 0.886059
7236.29004 0.88759
7237.00000 0.88912
7237.70996 0.89065
7238.41016 0.89218
7239.12012 0.893712
7239.81982 0.895225
7240.52979 0.895771
7241.22998 0.895982
7241.93994 0.896196
7242.64990 0.89641
7243.35010 0.896622
7244.06006 0.896836
7244.77002 0.897049
7245.47021 0.89726
7246.18018 0.897475
7246.87988 0.897689
7247.58984 0.897903
7248.29980 0.898116
7249.00000 0.898327
7249.70996 0.898541
7250.41992 0.899892
7251.12012 0.902023
7251.83008 0.904166
7252.52979 0.906297
7253.24023 0.908441
7253.95020 0.910585
7254.64990 0.912704
7255.35986 0.914847
7256.06982 0.916991
7256.77979 0.919133
7257.49023 0.921276
7258.18994 0.923396
7258.89990 0.925539
7259.60986 0.927683
7260.31006 0.928697
7261.02002 0.928328
7261.72998 0.92796
7262.43994 0.927594
7263.14990 0.927226
7263.85010 0.926863
7264.56006 0.926494
7265.27002 0.926126
7265.97998 0.925759
7266.68994 0.925388
7267.39990 0.925021
7268.10010 0.924655
7268.81006 0.924288
7269.52002 0.923921
7270.22998 0.923705
7270.93994 0.923813
7271.64990 0.923919
7272.35986 0.924026
7273.06982 0.924134
7273.77002 0.924238
7274.47998 0.924344
7275.18994 0.924451
7275.89990 0.924557
7276.60986 0.924663
7277.31982 0.924769
7278.02979 0.924876
7278.74023 0.924984
7279.45020 0.92509
7280.16016 0.925244
7280.87012 0.925561
7281.58008 0.925879
7282.29004 0.926197
7282.99023 0.926513
7283.70996 0.926832
7284.41992 0.92715
7285.12988 0.927469
7285.83984 0.927789
7286.54980 0.928104
7287.25977 0.928423
7287.97021 0.928742
7288.68018 0.929058
7289.39014 0.929377
7290.10010 0.929676
7290.81006 0.929853
7291.52002 0.930031
7292.22998 0.930208
7292.93994 0.930386
7293.64990 0.930565
7294.35986 0.930744
7295.08008 0.930922
7295.79004 0.931099
7296.50000 0.931275
7297.20996 0.931453
7297.91992 0.931631
7298.62988 0.931809
7299.35010 0.931988
7300.04980 0.93214
7300.77002 0.931972
7301.47021 0.931805
7302.18994 0.931636
7302.89990 0.931467
7303.60986 0.931298
7304.33008 0.93113
7305.04004 0.930962
7305.75000 0.930794
7306.45996 0.930626
7307.16992 0.930458
7307.89014 0.930289
7308.60010 0.93012
7309.31006 0.929952
7310.02002 0.929823
7310.74023 0.930835
7311.43994 0.931836
7312.16016 0.932849
7312.87012 0.933861
7313.58984 0.934873
7314.29980 0.935886
7315.00977 0.936888
7315.72998 0.937901
7316.43994 0.938913
7317.14990 0.93992
7317.85986 0.940934
7318.58008 0.941941
7319.29004 0.942952
7320.00977 0.943948
7320.70996 0.943237
7321.43018 0.942517
7322.14990 0.941796
7322.85986 0.941075
7323.58008 0.940354
7324.27979 0.939641
7325.00000 0.938921
7325.72021 0.938199
7326.43018 0.937482
7327.14014 0.93676
7327.85986 0.936038
7328.56982 0.935321
7329.29004 0.9346
7330.00000 0.933885
7330.70996 0.935241
7331.43018 0.93661
7332.14990 0.93798
7332.85986 0.939347
7333.58008 0.940714
7334.29004 0.942067
7335.00000 0.943436
7335.72021 0.944797
7336.43018 0.946166
7337.14990 0.947536
7337.85986 0.948895
7338.58008 0.950263
7339.29980 0.951631
7340.00977 0.95297
7340.72021 0.952626
7341.43994 0.952284
7342.16016 0.951942
7342.87988 0.951597
7343.58984 0.951259
7344.29980 0.950916
7345.02002 0.950571
7345.72998 0.950232
7346.45020 0.949889
7347.16992 0.949548
7347.87988 0.949203
7348.60010 0.94886
7349.31006 0.948521
7350.02979 0.948184
7350.75000 0.947953
7351.47021 0.94772
7352.18994 0.947489
7352.89990 0.947261
7353.60986 0.94703
7354.33008 0.946798
7355.04980 0.946567
7355.77002 0.946337
7356.47998 0.946106
7357.20020 0.945875
7357.91992 0.945644
7358.62988 0.945415
7359.35010 0.945183
7360.06982 0.945063
7360.79004 0.946018
7361.50977 0.946971
7362.22998 0.947925
7362.93994 0.948869
7363.66016 0.949823
7364.37012 0.950771
7365.08984 0.951723
7365.81006 0.952679
7366.52979 0.953628
7367.25000 0.954582
7367.95996 0.955526
7368.68018 0.95648
7369.39990 0.957434
7370.12012 0.957986
7370.83984 0.95652
7371.56006 0.955055
7372.27002 0.953606
7372.99023 0.952142
7373.70996 0.950683
7374.43018 0.949216
7375.14990 0.947751
7375.87012 0.946292
7376.58984 0.944825
7377.31006 0.943358
7378.02002 0.941908
7378.74023 0.940441
7379.45996 0.938973
7380.18994 0.938638
7380.91016 0.941581
7381.62012 0.944492
7382.33984 0.947433
7383.06006 0.950376
7383.77979 0.953301
7384.50000 0.956244
7385.22021 0.95917
7385.93994 0.962111
7386.66016 0.96505
7387.37988 0.967958
7388.10010 0.970897
7388.81982 0.973837
7389.54004 0.976775
7390.25977 0.978262
7390.97998 0.977239
7391.70020 0.976205
7392.41992 0.975171
7393.14014 0.974142
7393.85986 0.973106
7394.58984 0.972071
7395.31006 0.971042
7396.02979 0.970006
7396.74023 0.968981
7397.47021 0.967944
7398.18994 0.966908
7398.91016 0.96587
7399.62988 0.964833
7400.35986 0.964183
7401.06982 0.963933
7401.79980 0.963679
7402.52002 0.963428
7403.24023 0.963175
7403.95996 0.962922
7404.68018 0.96267
7405.39990 0.962416
7406.12988 0.962163
7406.83984 0.961915
7407.56982 0.961661
7408.29004 0.961408
7409.02002 0.961155
7409.74023 0.960902
7410.45996 0.960782
7411.18018 0.960735
7411.89990 0.960689
7412.62012 0.960642
7413.35010 0.960595
7414.06982 0.960549
7414.79004 0.960501
7415.52002 0.960455
7416.22998 0.960409
7416.95996 0.960362
7417.68018 0.960314
7418.41016 0.960267
7419.12988 0.960221
7419.85010 0.960174
7420.58008 0.96067
7421.29980 0.961307
7422.02002 0.961941
7422.75000 0.962577
7423.47021 0.963214
7424.18994 0.963846
7424.91992 0.964481
7425.64014 0.965111
7426.35986 0.965747
7427.08984 0.966382
7427.81006 0.967018
7428.54004 0.967654
7429.25977 0.968287
7429.97998 0.968919
7430.70996 0.969736
7431.43018 0.970553
7432.16016 0.971375
7432.89014 0.972197
7433.60986 0.973013
7434.33008 0.973833
7435.04980 0.974645
7435.77979 0.975468
7436.50977 0.976289
7437.22998 0.97711
7437.95996 0.977931
7438.68994 0.978751
7439.39990 0.979563
7440.12988 0.980156
7440.85010 0.979713
7441.58008 0.979267
7442.31006 0.978822
7443.02979 0.978378
7443.75977 0.977932
7444.49023 0.977487
7445.20996 0.977047
7445.93018 0.976602
7446.66016 0.976155
7447.39014 0.975709
7448.12012 0.975265
7448.83984 0.974825
7449.56006 0.97438
7450.29004 0.974892
7451.02002 0.976818
7451.74023 0.978754
7452.47021 0.980679
7453.20020 0.982616
7453.93018 0.984553
7454.64990 0.986469
7455.37012 0.988405
7456.10010 0.990342
7456.83008 0.992279
7457.56006 0.994214
7458.27979 0.996129
7459.00977 0.998065
7459.74023 1.0
7460.45996 0.99844
7461.18994 0.994891
7461.91992 0.991339
7462.64990 0.987809
7463.37988 0.984261
7464.10010 0.980752
7464.83008 0.977199
7465.56006 0.973651
7466.27979 0.970102
7467.02002 0.966552
7467.74023 0.963002
7468.47021 0.959493
7469.20020 0.955941
7469.91992 0.952412
7470.64990 0.952639
7471.37988 0.953319
7472.10986 0.953995
7472.83984 0.954675
7473.56982 0.955355
7474.29004 0.956026
7475.02002 0.956707
7475.75000 0.957386
7476.47998 0.958066
7477.20996 0.958745
7477.93994 0.959416
7478.66992 0.960097
7479.39990 0.960777
7480.12012 0.961697
7480.85010 0.963822
7481.58008 0.965938
7482.31006 0.968067
7483.04004 0.970193
7483.77002 0.972297
7484.50000 0.974426
7485.22998 0.976554
7485.95996 0.978682
7486.68994 0.980808
7487.41992 0.982912
7488.14990 0.985039
7488.87988 0.987167
7489.60986 0.989283
7490.33984 0.989667
7491.06982 0.988026
7491.79980 0.986394
7492.52979 0.984754
7493.25977 0.983132
7493.99023 0.981492
7494.72021 0.979851
7495.45020 0.978211
7496.18994 0.97657
7496.91992 0.97493
7497.64014 0.97331
7498.37012 0.97167
7499.10010 0.970039
7499.83984 0.9684
7500.56982 0.966674
7501.29980 0.964932
7502.02979 0.96318
7502.75977 0.961449
7503.49023 0.959699
7504.22021 0.957947
7504.95020 0.956196
7505.68994 0.954446
7506.41992 0.952695
7507.14990 0.950964
7507.87988 0.949212
7508.60986 0.947469
7509.33984 0.945717
7510.08008 0.944381
7510.81006 0.9465
7511.54004 0.948634
7512.27979 0.95077
7513.00000 0.952878
7513.74023 0.955011
7514.47021 0.957144
7515.20020 0.959276
7515.93994 0.961409
7516.66016 0.963517
7517.39990 0.965649
7518.12988 0.967781
7518.85986 0.969899
7519.60010 0.972029
7520.33008 0.972514
7521.06006 0.971007
7521.79980 0.969502
7522.52979 0.96801
7523.25977 0.9665
7524.00000 0.964993
7524.72998 0.963485
7525.47021 0.961977
7526.18994 0.960485
7526.93018 0.958972
7527.66992 0.957462
7528.39990 0.955961
7529.12988 0.95445
7529.87012 0.952938
7530.60010 0.952306
7531.33984 0.95186
7532.06006 0.951421
7532.79980 0.950976
7533.54004 0.950531
7534.27002 0.950085
7535.00977 0.94964
7535.75000 0.949197
7536.47021 0.948756
7537.20996 0.94831
7537.93994 0.947868
7538.68018 0.947424
7539.41992 0.946981
7540.14990 0.946576
7540.89014 0.946315
7541.62012 0.946055
7542.35010 0.945799
7543.08984 0.945539
7543.81982 0.945279
7544.56006 0.945017
7545.29980 0.944757
7546.02979 0.944503
7546.77002 0.94424
7547.50000 0.943979
7548.24023 0.943721
7548.97998 0.943461
7549.70996 0.943201
7550.45020 0.94212
7551.18018 0.940501
7551.91016 0.938901
7552.64990 0.937284
7553.39014 0.935665
7554.12988 0.934047
7554.87012 0.93243
7555.60010 0.930831
7556.33008 0.929212
7557.06982 0.927593
7557.81006 0.925984
7558.54980 0.924367
7559.27979 0.922748
7560.02002 0.921197
7560.75977 0.921917
7561.49023 0.922629
7562.22998 0.923349
7562.97021 0.924069
7563.70020 0.924788
7564.43994 0.925508
7565.18018 0.926228
7565.91016 0.92694
7566.64990 0.927657
7567.39014 0.928371
7568.12988 0.92909
7568.87012 0.929809
7569.60010 0.930523
7570.33984 0.931519
7571.06982 0.932822
7571.81006 0.934142
7572.56006 0.935459
7573.29980 0.936775
7574.02979 0.938092
7574.77002 0.939411
7575.50977 0.940712
7576.25000 0.942027
7576.97998 0.943337
7577.72021 0.944654
7578.45996 0.94597
7579.20020 0.947278
7579.93994 0.948591
7580.68018 0.947692
7581.41016 0.946612
7582.16016 0.945518
7582.89990 0.944425
7583.64014 0.943333
7584.37988 0.942241
7585.10986 0.94116
7585.85010 0.940066
7586.58984 0.938974
7587.33008 0.937889
7588.06982 0.936794
7588.81006 0.935706
7589.54980 0.934614
7590.29004 0.933589
7591.02979 0.932677
7591.77002 0.931756
7592.50977 0.930834
7593.25000 0.929911
7593.99023 0.928988
7594.72998 0.928079
7595.47021 0.927158
7596.20996 0.926235
7596.95020 0.925318
7597.68994 0.924397
7598.43994 0.923476
7599.16992 0.922559
7599.91992 0.921638
7600.64990 0.923624
7601.39014 0.92601
7602.14014 0.928396
7602.87988 0.930781
7603.62012 0.933169
7604.37012 0.935555
7605.10010 0.937911
7605.83984 0.940298
7606.58008 0.942671
7607.33008 0.945058
7608.06982 0.947445
7608.81006 0.949819
7609.54980 0.952205
7610.29980 0.95228
7611.02979 0.948895
7611.77002 0.945471
7612.52002 0.942049
7613.25977 0.938627
7614.00977 0.935204
7614.74023 0.931824
7615.49023 0.928403
7616.22998 0.92498
7616.97021 0.921581
7617.72021 0.918161
7618.45996 0.914762
7619.20020 0.911346
7619.93994 0.907926
7620.68018 0.910959
7621.43018 0.914556
7622.16992 0.918155
7622.91016 0.92175
7623.66016 0.925348
7624.39990 0.928902
7625.14014 0.932498
7625.89014 0.936095
7626.62988 0.939671
7627.37012 0.943267
7628.12012 0.94686
7628.85986 0.950435
7629.60010 0.954029
7630.33984 0.956112
7631.08984 0.956509
7631.83008 0.956904
7632.58008 0.9573
7633.33008 0.957696
7634.06982 0.958092
7634.81006 0.958481
7635.56006 0.958876
7636.29980 0.959271
7637.04004 0.959666
7637.79004 0.960061
7638.52979 0.960453
7639.27979 0.960847
7640.02002 0.961239
7640.75977 0.961596
7641.50977 0.961953
7642.25977 0.96231
7643.00000 0.962668
7643.75000 0.963022
7644.49023 0.963375
7645.24023 0.963731
7645.97998 0.964084
7646.72998 0.964441
7647.47021 0.964797
7648.22021 0.96515
7648.95996 0.965503
7649.70996 0.96586
7650.45020 0.966799
7651.20020 0.968128
7651.95020 0.969459
7652.68994 0.970788
7653.43994 0.972117
7654.18018 0.973431
7654.93018 0.974761
7655.68018 0.976088
7656.41992 0.977408
7657.16992 0.978737
7657.91016 0.980059
7658.66016 0.981386
7659.41016 0.982714
7660.14990 0.983602
7660.89990 0.982813
7661.64990 0.982023
7662.39990 0.981233
7663.14990 0.980442
7663.89014 0.979661
7664.62988 0.978872
7665.37988 0.978083
7666.12988 0.977298
7666.87988 0.976508
7667.62988 0.975718
7668.37012 0.974933
7669.12012 0.974144
7669.85986 0.973364
7670.60986 0.972919
7671.35986 0.97255
7672.10986 0.972181
7672.85986 0.971812
7673.60986 0.971442
7674.35010 0.971077
7675.10010 0.970708
7675.85010 0.97034
7676.60010 0.969972
7677.35010 0.969603
7678.08984 0.969236
7678.83984 0.968867
7679.60010 0.968498
7680.33984 0.968301
7681.08984 0.968306
7681.83984 0.968313
7682.58984 0.968319
7683.33984 0.968325
7684.08008 0.968332
7684.83008 0.968335
7685.58008 0.968341
7686.33008 0.968347
7687.08008 0.968352
7687.83008 0.968358
7688.58008 0.968363
7689.33008 0.968369
7690.06982 0.968184
7690.83008 0.966277
7691.58008 0.964368
7692.33008 0.962461
7693.08008 0.960556
7693.81982 0.958668
7694.58008 0.956761
7695.33008 0.954854
7696.08008 0.952957
7696.83008 0.951051
7697.58008 0.949144
7698.33008 0.947248
7699.08008 0.945343
7699.81982 0.94346
7700.58008 0.943623
7701.33008 0.944416
7702.08008 0.945208
7702.83008 0.946
7703.58984 0.946793
7704.33008 0.947577
7705.08008 0.948369
7705.83008 0.949156
7706.58984 0.949947
7707.33984 0.950738
7708.08984 0.951525
7708.83984 0.952317
7709.58984 0.953099
7710.33984 0.952821
7711.08984 0.951245
7711.85010 0.949667
7712.60010 0.94809
7713.35010 0.946514
7714.10010 0.944952
7714.85010 0.943378
7715.60010 0.941811
7716.35986 0.940236
7717.10986 0.938662
7717.85986 0.937094
7718.60986 0.935519
7719.37012 0.933945
7720.10986 0.932755
7720.87012 0.933582
7721.62012 0.934406
7722.37988 0.935232
7723.12988 0.936056
7723.87988 0.936872
7724.64014 0.937695
7725.39014 0.938518
7726.14014 0.939337
7726.89990 0.940161
7727.64990 0.94098
7728.39990 0.941803
7729.16016 0.942624
7729.89990 0.943438
7730.66016 0.941734
7731.41016 0.939659
7732.16992 0.937585
7732.93018 0.935509
7733.66992 0.933458
7734.43018 0.931384
7735.18018 0.929311
7735.93994 0.92725
7736.68994 0.925176
7737.45020 0.923104
7738.20020 0.921043
7738.95996 0.918972
7739.70020 0.916923
7740.45996 0.916365
7741.22021 0.916782
7741.97021 0.917197
7742.72998 0.917616
7743.49023 0.918033
7744.22998 0.918444
7744.99023 0.91886
7745.74023 0.919275
7746.50000 0.919691
7747.25977 0.920108
7748.00977 0.920521
7748.77002 0.920939
7749.52002 0.921355
7750.27002 0.92179
7751.02979 0.922274
7751.79004 0.92276
7752.54980 0.923243
7753.29980 0.923727
7754.04980 0.924205
7754.81006 0.924688
7755.56982 0.925173
7756.31982 0.925654
7757.08008 0.926136
7757.83008 0.926616
7758.58984 0.927099
7759.35010 0.927582
7760.10010 0.927775
7760.85986 0.9261
7761.62012 0.924425
7762.37988 0.922752
7763.12988 0.921078
7763.87988 0.919425
7764.64014 0.917753
7765.39990 0.916083
7766.16016 0.914424
7766.91016 0.912755
7767.66992 0.911087
7768.43018 0.909429
7769.18994 0.907764
7769.93994 0.906117
7770.70020 0.905474
7771.45996 0.90492
7772.22021 0.904367
7772.97998 0.903813
7773.74023 0.903259
7774.49023 0.902711
7775.25000 0.902156
7776.00000 0.901606
7776.75977 0.901052
7777.52002 0.900498
7778.27979 0.899947
7779.04004 0.899392
7779.79004 0.898844
7780.54980 0.898007
7781.31006 0.897062
7782.06982 0.896118
7782.83008 0.895172
7783.58984 0.894225
7784.33984 0.89329
7785.10010 0.892344
7785.85986 0.891404
7786.62012 0.890459
7787.37988 0.889513
7788.14014 0.888573
7788.89990 0.887628
7789.66016 0.886682
7790.41016 0.886854
7791.18018 0.887945
7791.93994 0.889034
7792.70020 0.890123
7793.45996 0.891213
7794.20996 0.89229
7794.97998 0.893379
7795.74023 0.894468
7796.49023 0.895551
7797.25977 0.896639
7798.00977 0.897722
7798.77002 0.898809
7799.54004 0.899897
7800.29004 0.900518
7801.04980 0.900416
7801.81982 0.900314
7802.58008 0.900212
7803.33984 0.90011
7804.10010 0.900009
7804.85986 0.899909
7805.62012 0.899805
7806.37988 0.899703
7807.14014 0.899601
7807.89990 0.899498
7808.66016 0.899397
7809.43018 0.899294
7810.18018 0.899233
7810.93994 0.899304
7811.70996 0.899375
7812.47021 0.899445
7813.22998 0.899516
7814.00000 0.899586
7814.75000 0.899657
7815.52002 0.899728
7816.27979 0.899797
7817.04004 0.899865
7817.79980 0.899936
7818.56006 0.900006
7819.33008 0.900075
7820.08984 0.900177
7820.85010 0.900527
7821.60986 0.90088
7822.37988 0.901233
7823.14014 0.901586
7823.89990 0.901938
7824.66016 0.902289
7825.43018 0.902641
7826.18994 0.902992
7826.95020 0.903343
7827.72021 0.903694
7828.47998 0.904044
7829.24023 0.904395
7830.00977 0.904745
7830.75977 0.904949
7831.52979 0.905154
7832.29004 0.905359
7833.06006 0.905563
7833.81982 0.905768
7834.58008 0.905968
7835.35010 0.906171
7836.10986 0.906375
7836.87012 0.906576
7837.64014 0.906779
7838.41016 0.906982
7839.16992 0.907184
7839.93018 0.907385
7840.68994 0.907816
7841.45996 0.908275
7842.22021 0.908732
7842.99023 0.909189
7843.75977 0.909647
7844.52002 0.910105
7845.27979 0.910558
7846.04980 0.911015
7846.81006 0.911469
7847.58008 0.911926
7848.33984 0.912383
7849.10986 0.912837
7849.87012 0.913293
7850.62988 0.913252
7851.39990 0.913109
7852.16992 0.912966
7852.93018 0.912824
7853.70020 0.912682
7854.47021 0.912538
7855.22998 0.912395
7855.99023 0.912253
7856.75977 0.91211
7857.52979 0.911966
7858.29004 0.911822
7859.06006 0.911678
7859.83008 0.911534
7860.58984 0.912555
7861.35010 0.913903
7862.12012 0.915264
7862.89014 0.916627
7863.66016 0.917987
7864.43018 0.919348
7865.18994 0.920693
7865.95996 0.922053
7866.72021 0.923413
7867.49023 0.924765
7868.25977 0.926125
7869.02002 0.927476
7869.79004 0.928834
7870.56006 0.928632
7871.31982 0.927858
7872.08984 0.927072
7872.85986 0.926288
7873.62988 0.925505
7874.39990 0.924721
7875.16016 0.923945
7875.93018 0.923164
7876.70020 0.922379
7877.45996 0.9216
7878.22998 0.920818
7879.00000 0.920035
7879.77002 0.919255
7880.54004 0.91901
7881.29980 0.918995
7882.06982 0.918979
7882.83984 0.918962
7883.60986 0.918946
7884.37988 0.91893
7885.14990 0.918913
7885.91016 0.918898
7886.68018 0.918881
7887.45020 0.918864
7888.22021 0.918847
7888.99023 0.91883
7889.75977 0.918814
7890.52979 0.918986
7891.29980 0.919244
7892.06006 0.919498
7892.83984 0.919756
7893.60986 0.920014
7894.37988 0.920272
7895.14990 0.92053
7895.91016 0.920783
7896.68018 0.92104
7897.45020 0.921297
7898.22021 0.921553
7898.99023 0.921808
7899.75977 0.922063
7900.52979 0.922001
7901.31006 0.921797
7902.06982 0.921596
7902.83984 0.921391
7903.60986 0.921187
7904.39014 0.920983
7905.16016 0.920779
7905.91992 0.920579
7906.68994 0.920374
7907.47021 0.920171
7908.24023 0.919968
7909.00977 0.919764
7909.77979 0.919559
7910.54980 0.91991
7911.31982 0.920482
7912.08984 0.921047
7912.85986 0.921619
7913.62988 0.922191
7914.41016 0.922764
7915.18018 0.923334
7915.95020 0.923904
7916.72021 0.924468
7917.49023 0.925039
7918.25977 0.925605
7919.04004 0.926171
7919.81006 0.92674
7920.58008 0.925872
7921.35010 0.924528
7922.12012 0.923191
7922.89014 0.921852
7923.66992 0.920509
7924.43994 0.919165
7925.22021 0.917821
7925.99023 0.916476
7926.75977 0.915147
7927.52979 0.913805
7928.29980 0.912469
7929.08008 0.911125
7929.85010 0.909783
7930.62012 0.909414
7931.39990 0.909276
7932.16992 0.909137
7932.93994 0.908998
7933.70996 0.908858
7934.49023 0.908719
7935.27002 0.90858
7936.04004 0.908441
7936.81006 0.908301
7937.58008 0.908162
7938.35986 0.908023
7939.12988 0.907884
7939.89990 0.907743
7940.68018 0.908383
7941.45020 0.909136
7942.22998 0.909886
7943.00000 0.910626
7943.77002 0.911378
7944.54980 0.912129
7945.31982 0.912877
7946.10010 0.913625
7946.87012 0.914366
7947.64990 0.915113
7948.41992 0.915859
7949.18994 0.916599
7949.97021 0.917346
7950.75000 0.914732
7951.52002 0.912005
7952.29980 0.909266
7953.06982 0.906558
7953.83984 0.903821
7954.62012 0.901083
7955.39990 0.898348
7956.18018 0.895615
7956.95020 0.892882
7957.72021 0.890182
7958.50000 0.88745
7959.27002 0.884735
7960.04980 0.882284
7960.83008 0.883739
7961.60010 0.885186
7962.37988 0.886642
7963.16016 0.888095
7963.93018 0.889531
7964.70996 0.890985
7965.47998 0.892438
7966.25977 0.893889
7967.04004 0.895341
7967.81006 0.896775
7968.58984 0.898224
7969.37012 0.899672
7970.14014 0.900728
7970.91992 0.900093
7971.70020 0.899458
7972.47998 0.898821
7973.25977 0.898184
7974.02002 0.897556
7974.81006 0.896918
7975.58008 0.896281
7976.35986 0.895645
7977.14014 0.895009
7977.91016 0.89438
7978.68994 0.893743
7979.47021 0.893107
7980.25000 0.893105
7981.02979 0.894452
7981.81006 0.895799
7982.58008 0.897138
7983.35986 0.898487
7984.14014 0.89982
7984.91992 0.901169
7985.70020 0.902517
7986.47998 0.903865
7987.25977 0.905213
7988.04004 0.906564
7988.81006 0.907899
7989.58984 0.909246
7990.37012 0.909247
7991.14990 0.907737
7991.93018 0.906226
7992.70020 0.904723
7993.47998 0.90321
7994.25977 0.901715
7995.04004 0.900203
7995.81982 0.898694
7996.60010 0.897181
7997.37988 0.895667
7998.16016 0.894156
7998.93994 0.892662
7999.72021 0.891149
8000.50000 0.890694
8001.27979 0.890835
8002.06006 0.890975
8002.83984 0.891114
8003.62012 0.891252
8004.39990 0.89139
8005.18018 0.891528
8005.95996 0.891667
8006.74023 0.891805
8007.52002 0.891942
8008.31006 0.892079
8009.08008 0.892215
8009.85986 0.892352
8010.64990 0.891928
8011.41992 0.891385
8012.20996 0.890839
8012.97998 0.890296
8013.77002 0.889751
8014.54980 0.889206
8015.31982 0.888668
8016.10986 0.888124
8016.89014 0.887578
8017.68018 0.887033
8018.45996 0.886488
8019.22998 0.885949
8020.02002 0.88539
8020.79980 0.884277
8021.58008 0.88317
8022.35986 0.882055
8023.14990 0.88094
8023.93018 0.879833
8024.70996 0.878718
8025.49023 0.877616
8026.27002 0.876502
8027.06006 0.875388
8027.83984 0.874274
8028.62012 0.873161
8029.41016 0.872047
8030.18994 0.871608
8030.97021 0.873305
8031.75000 0.874989
8032.52979 0.876685
8033.31982 0.87838
8034.10010 0.880065
8034.89014 0.881757
8035.66992 0.88345
8036.45020 0.885123
8037.22998 0.886815
8038.02002 0.888503
8038.79980 0.890194
8039.58984 0.891883
8040.37012 0.892169
8041.14990 0.890893
8041.93994 0.889617
8042.72021 0.888349
8043.50977 0.887073
8044.29004 0.885804
8045.06982 0.884528
8045.85986 0.883256
8046.64014 0.881995
8047.41992 0.880719
8048.20996 0.879445
8049.00000 0.87817
8049.77979 0.876896
8050.56006 0.877107
8051.35010 0.877897
8052.12988 0.878686
8052.91992 0.879473
8053.70020 0.880262
8054.49023 0.881052
8055.27002 0.881838
8056.06006 0.882629
8056.83984 0.883408
8057.62012 0.884198
8058.41016 0.884988
8059.20020 0.885778
8059.99023 0.886567
8060.77979 0.885356
8061.56006 0.88413
8062.33984 0.88289
8063.12988 0.881657
8063.91016 0.880421
8064.70020 0.879181
8065.47998 0.87795
8066.27002 0.876713
8067.04980 0.875492
8067.83984 0.874256
8068.62988 0.873021
8069.41992 0.871788
8070.20996 0.870896
8071.00000 0.870958
8071.77002 0.871024
8072.56006 0.871088
8073.35010 0.871152
8074.14014 0.871217
8074.93018 0.871281
8075.70996 0.871344
8076.50000 0.871408
8077.29004 0.871472
8078.06982 0.871534
8078.85986 0.8716
8079.64990 0.871663
8080.43994 0.87206
8081.22998 0.872724
8082.00977 0.873379
8082.79980 0.874043
8083.58984 0.874707
8084.37988 0.875366
8085.16016 0.876028
8085.95020 0.876686
8086.74023 0.877349
8087.52979 0.878011
8088.31982 0.878668
8089.10986 0.879331
8089.89014 0.879989
8090.68018 0.878748
8091.47021 0.877212
8092.25977 0.875693
8093.04980 0.874158
8093.83984 0.872625
8094.62012 0.871101
8095.41016 0.869567
8096.20996 0.868035
8096.99023 0.866514
8097.77979 0.864982
8098.56982 0.86346
8099.35986 0.861941
8100.14990 0.86093
8100.93994 0.862144
8101.72998 0.863355
8102.52002 0.86456
8103.31006 0.865767
8104.10010 0.866979
8104.89014 0.868184
8105.68018 0.869397
8106.47021 0.870609
8107.25977 0.871814
8108.04980 0.873026
8108.83984 0.874239
8109.62988 0.875443
8110.41992 0.876076
8111.20996 0.876204
8112.00000 0.876329
8112.79980 0.876457
8113.58008 0.876583
8114.37012 0.87671
8115.16992 0.876836
8115.95996 0.876964
8116.75000 0.877089
8117.54004 0.877214
8118.33008 0.877341
8119.12012 0.877467
8119.91016 0.877592
8120.70020 0.878362
8121.50000 0.879218
8122.29004 0.880074
8123.08008 0.880928
8123.87012 0.881772
8124.66016 0.882625
8125.45996 0.883478
8126.25000 0.884326
8127.04004 0.885177
8127.83008 0.88603
8128.62012 0.886876
8129.41992 0.887726
8130.20996 0.887808
8131.00000 0.885751
8131.79004 0.883707
8132.58984 0.881649
8133.37988 0.879594
8134.18018 0.877537
8134.95996 0.875506
8135.75977 0.873449
8136.54980 0.871408
8137.33984 0.869355
8138.14014 0.8673
8138.93018 0.865261
8139.72998 0.86321
8140.52002 0.861693
8141.31006 0.860466
8142.10010 0.859239
8142.89990 0.858004
8143.68994 0.856771
8144.47998 0.855546
8145.27979 0.85432
8146.06982 0.853089
8146.85986 0.851865
8147.66016 0.850635
8148.45996 0.849404
8149.25000 0.84818
8150.04980 0.847109
8150.83984 0.848746
8151.62988 0.850371
8152.43018 0.851996
8153.22021 0.853632
8154.02002 0.855264
8154.81006 0.856899
8155.60010 0.858514
8156.39990 0.860147
8157.20020 0.86178
8157.99023 0.863403
8158.79004 0.865036
8159.58008 0.86666
8160.37988 0.86704
8161.18018 0.866029
8161.97021 0.865025
8162.77002 0.864017
8163.56006 0.863013
8164.35986 0.862006
8165.14990 0.860999
8165.93994 0.860003
8166.74023 0.858997
8167.54004 0.857991
8168.33008 0.856991
8169.12988 0.855988
8169.93018 0.854981
8170.72021 0.854024
8171.52002 0.853063
8172.31982 0.852108
8173.10986 0.851149
8173.91016 0.850194
8174.70996 0.849232
8175.50977 0.848272
8176.31006 0.847311
8177.10010 0.84636
8177.89990 0.8454
8178.68994 0.844443
8179.49023 0.843482
8180.29004 0.843104
8181.08008 0.843761
8181.87988 0.844418
8182.68018 0.845078
8183.47998 0.845733
8184.27979 0.846392
8185.06982 0.847048
8185.87012 0.847705
8186.66992 0.84836
8187.45996 0.849015
8188.25977 0.849673
8189.06006 0.850331
8189.85986 0.850985
8190.66016 0.850342
8191.45996 0.849427
8192.25977 0.848507
8193.05957 0.847588
8193.84961 0.846675
8194.65039 0.84576
8195.45020 0.844842
8196.25000 0.843923
8197.04980 0.843004
8197.83984 0.842099
8198.65039 0.841182
8199.45020 0.840264
8200.24023 0.839983
8201.04004 0.841148
8201.84961 0.842314
8202.63965 0.843471
8203.44043 0.844635
8204.24023 0.84579
8205.04004 0.846954
8205.83984 0.848108
8206.63965 0.849272
8207.44043 0.850433
8208.24023 0.851587
8209.04004 0.852741
8209.83984 0.8539
8210.63965 0.853278
8211.44043 0.852212
8212.24023 0.851143
8213.04004 0.85008
8213.83984 0.849013
8214.63965 0.847951
8215.44043 0.846883
8216.24023 0.845821
8217.04980 0.844754
8217.84961 0.843687
8218.65039 0.842617
8219.45020 0.841562
8220.25000 0.840546
8221.04980 0.839648
8221.84961 0.838747
8222.66016 0.837845
8223.45020 0.836948
8224.25977 0.836048
8225.05957 0.83515
8225.86035 0.834255
8226.66992 0.833356
8227.46973 0.832463
8228.26953 0.831566
8229.07031 0.830671
8229.87012 0.829781
8230.66992 0.829944
8231.48047 0.830315
8232.28027 0.830685
8233.08008 0.831058
8233.87988 0.831425
8234.69043 0.831796
8235.49023 0.832168
8236.29004 0.832536
8237.08984 0.832903
8237.90039 0.833275
8238.70020 0.833645
8239.50977 0.834015
8240.29980 0.834204
8241.11035 0.834105
8241.91016 0.834004
8242.70996 0.833906
8243.51953 0.833806
8244.33008 0.833705
8245.12988 0.833605
8245.92969 0.833505
8246.73047 0.833404
8247.54004 0.833303
8248.33984 0.833203
8249.15039 0.833102
8249.95020 0.833002
8250.75000 0.833116
8251.55957 0.833243
8252.36035 0.833371
8253.16016 0.8335
8253.96973 0.833626
8254.78027 0.833755
8255.58008 0.833882
8256.38965 0.83401
8257.19043 0.834137
8258.00000 0.834263
8258.79980 0.834388
8259.59961 0.834513
8260.41016 0.834101
8261.21973 0.833174
8262.01953 0.832256
8262.83008 0.831329
8263.62988 0.830402
8264.44043 0.829481
8265.24023 0.828554
8266.04980 0.827632
8266.84961 0.826706
8267.66016 0.82578
8268.46973 0.824859
8269.26953 0.823935
8270.08008 0.823186
8270.88965 0.824062
8271.69043 0.824939
8272.49023 0.825806
8273.29980 0.826681
8274.11035 0.827554
8274.91016 0.828427
8275.71973 0.829301
8276.53027 0.830174
8277.33008 0.831042
8278.15039 0.831917
8278.95020 0.832781
8279.75000 0.83365
8280.55957 0.833546
8281.37012 0.833011
8282.17969 0.832475
8282.99023 0.831944
8283.79004 0.831413
8284.59961 0.830877
8285.41016 0.830345
8286.21973 0.829811
8287.01953 0.829276
8287.83008 0.828744
8288.63965 0.82821
8289.44043 0.827678
8290.25000 0.827038
8291.05957 0.826172
8291.87012 0.825304
8292.67969 0.824436
8293.49023 0.823569
8294.29004 0.822712
8295.09961 0.821846
8295.91016 0.820983
8296.71973 0.820117
8297.53027 0.819252
8298.33984 0.81839
8299.15039 0.817525
8299.95996 0.816662
8300.76953 0.815799
8301.57031 0.814937
8302.37988 0.814071
8303.19043 0.813206
8304.00977 0.812342
8304.80957 0.811484
8305.62012 0.810619
8306.42969 0.809755
8307.24023 0.808894
8308.04980 0.808031
8308.86035 0.807172
8309.66992 0.806308
8310.48047 0.806139
8311.29004 0.806443
8312.09961 0.806747
8312.91016 0.807054
8313.71973 0.807357
8314.53027 0.807661
8315.33984 0.807962
8316.15039 0.808268
8316.95996 0.808572
8317.76953 0.808871
8318.58008 0.809173
8319.40039 0.809476
8320.20996 0.809687
8321.01953 0.809634
8321.83008 0.809579
8322.63965 0.809524
8323.45020 0.809468
8324.25977 0.809412
8325.08008 0.80936
8325.88965 0.809303
8326.69043 0.809249
8327.50977 0.809193
8328.32031 0.809137
8329.12988 0.809082
8329.94043 0.809024
8330.75000 0.808492
8331.57031 0.807921
8332.37988 0.80735
8333.19043 0.806783
8334.00000 0.806214
8334.82031 0.805646
8335.62988 0.805075
8336.44043 0.804504
8337.25000 0.80394
8338.07031 0.80337
8338.87988 0.8028
8339.69043 0.802232
8340.50977 0.802016
8341.32031 0.802017
8342.12988 0.802017
8342.95020 0.802017
8343.75977 0.802017
8344.57031 0.802016
8345.37988 0.802014
8346.20020 0.802012
8347.00977 0.802012
8347.82031 0.80201
8348.63965 0.802009
8349.45020 0.802007
8350.25977 0.801941
8351.08008 0.801743
8351.90039 0.801542
8352.70996 0.801343
8353.51953 0.801142
8354.33984 0.800942
8355.15039 0.80074
8355.96973 0.800542
8356.78027 0.80034
8357.59961 0.80014
8358.41992 0.79994
8359.21973 0.799741
8360.04004 0.799532
8360.84961 0.799195
8361.66992 0.798854
8362.49023 0.798515
8363.29980 0.798178
8364.11035 0.797837
8364.92969 0.797497
8365.75000 0.797159
8366.55957 0.796818
8367.37988 0.79648
8368.19043 0.79614
8369.00977 0.795801
8369.82031 0.795462
8370.63965 0.795383
8371.45020 0.795375
8372.26953 0.795367
8373.08984 0.79536
8373.90039 0.795352
8374.71973 0.795343
8375.54004 0.795335
8376.34961 0.795326
8377.16992 0.795316
8377.99023 0.795307
8378.79980 0.795295
8379.62012 0.795286
8380.42969 0.794756
8381.25000 0.79376
8382.07031 0.792764
8382.88965 0.791774
8383.70020 0.790781
8384.51953 0.789791
8385.33984 0.788795
8386.16016 0.7878
8386.96973 0.78681
8387.79004 0.785816
8388.61035 0.784827
8389.42969 0.783831
8390.25000 0.783498
8391.05957 0.784696
8391.87988 0.785905
8392.70020 0.787114
8393.50977 0.788316
8394.33008 0.789525
8395.15039 0.790733
8395.96973 0.791933
8396.79004 0.793143
8397.59961 0.794345
8398.42969 0.795552
8399.24023 0.796753
8400.05957 0.797765
8400.87988 0.796423
8401.70020 0.795077
8402.51953 0.793749
8403.33984 0.792405
8404.15039 0.79107
8404.98047 0.789729
8405.79980 0.78839
8406.61035 0.787058
8407.44043 0.785721
8408.25977 0.784386
8409.07031 0.783056
8409.90039 0.781721
8410.70996 0.781768
8411.53027 0.782018
8412.34961 0.782266
8413.16992 0.782514
8413.99023 0.782763
8414.80957 0.783011
8415.62988 0.783258
8416.45020 0.783505
8417.26953 0.78375
8418.08984 0.783997
8418.91992 0.784241
8419.74023 0.784485
8420.54980 0.784667
8421.37988 0.784819
8422.20020 0.78497
8423.01953 0.785119
8423.83984 0.78527
8424.66016 0.78542
8425.48047 0.78557
8426.29980 0.785719
8427.12012 0.785869
8427.95020 0.786017
8428.76953 0.786163
8429.58984 0.786312
8430.41016 0.786172
8431.23047 0.785741
8432.04980 0.785311
8432.87988 0.784878
8433.70020 0.784447
8434.51953 0.784018
8435.33984 0.783589
8436.16992 0.783158
8436.99023 0.782728
8437.80957 0.782296
8438.62988 0.781866
8439.45020 0.781437
8440.28027 0.781139
8441.09961 0.781104
8441.91992 0.781071
8442.74023 0.781038
8443.57031 0.781003
8444.40039 0.780967
8445.21973 0.780931
8446.03027 0.780896
8446.86035 0.780861
8447.67969 0.780824
8448.50977 0.780788
8449.33008 0.780753
8450.15039 0.780384
8450.98047 0.778562
8451.80957 0.77674
8452.62988 0.77493
8453.45020 0.77311
8454.26953 0.771303
8455.09961 0.769485
8455.92969 0.76767
8456.74023 0.765874
8457.57031 0.764059
8458.40039 0.762245
8459.21973 0.760441
8460.04980 0.758772
8460.87012 0.759581
8461.69043 0.760393
8462.51953 0.761203
8463.33984 0.762008
8464.16992 0.762815
8464.99023 0.763623
8465.82031 0.76443
8466.65039 0.765236
8467.46973 0.766033
8468.29004 0.766838
8469.12012 0.767642
8469.94043 0.768439
8470.76953 0.76843
8471.59961 0.768362
8472.41992 0.768292
8473.25000 0.76822
8474.07031 0.768152
8474.90039 0.768084
8475.73047 0.768012
8476.54980 0.767941
8477.37988 0.767871
8478.20996 0.767799
8479.03027 0.767726
8479.86035 0.767656
8480.67969 0.767398
8481.50977 0.7671
8482.33984 0.766801
8483.16016 0.766502
8483.99023 0.766201
8484.82031 0.765901
8485.65039 0.765603
8486.46973 0.765303
8487.29980 0.765001
8488.12988 0.7647
8488.95996 0.764398
8489.78027 0.764099
8490.61035 0.763156
8491.44043 0.761981
8492.25977 0.760813
8493.08984 0.759641
8493.91992 0.758475
8494.75000 0.757305
8495.58008 0.756133
8496.41016 0.75497
8497.24023 0.753802
8498.05957 0.752638
8498.88965 0.75147
8499.71973 0.750301
8500.54004 0.75012
8501.37012 0.750437
8502.20020 0.750752
8503.03027 0.751066
8503.86035 0.751382
8504.69043 0.751697
8505.51953 0.752009
8506.34961 0.752321
8507.17969 0.752631
8508.00977 0.752943
8508.83984 0.753254
8509.66992 0.753565
8510.50000 0.753372
8511.33008 0.752847
8512.15039 0.752322
8512.98047 0.751795
8513.80957 0.75127
8514.63965 0.750741
8515.48047 0.750213
8516.29980 0.749688
8517.13965 0.74916
8517.96973 0.748633
8518.79980 0.748107
8519.62012 0.747581
8520.45996 0.748282
8521.29004 0.749999
8522.12012 0.751712
8522.94043 0.753405
8523.78027 0.755119
8524.61035 0.756821
8525.44043 0.758531
8526.26953 0.760239
8527.09961 0.761935
8527.92969 0.76364
8528.76953 0.765346
8529.59961 0.767039
8530.42969 0.766501
8531.25977 0.763871
8532.08984 0.76123
8532.92969 0.758591
8533.75000 0.755981
8534.58008 0.753345
8535.41992 0.750711
8536.25000 0.748096
8537.08008 0.745467
8537.91016 0.742856
8538.75000 0.740233
8539.58008 0.737611
8540.41016 0.736695
8541.25000 0.737514
8542.08008 0.738325
8542.91016 0.739143
8543.74023 0.739958
8544.57031 0.740764
8545.41016 0.741578
8546.24023 0.742392
8547.07031 0.7432
8547.91016 0.744012
8548.74023 0.744824
8549.57031 0.745632
8550.41016 0.746474
8551.24023 0.747345
8552.07031 0.748218
8552.91016 0.749092
8553.74023 0.749961
8554.58008 0.750835
8555.41016 0.751702
8556.24023 0.752565
8557.08008 0.753435
8557.91016 0.754298
8558.74023 0.755166
8559.58008 0.756033
8560.41016 0.756655
8561.25000 0.757037
8562.08008 0.757419
8562.91992 0.757796
8563.75000 0.758173
8564.58984 0.758553
8565.41992 0.758932
8566.25977 0.75931
8567.08984 0.759685
8567.91992 0.760061
8568.75977 0.760438
8569.58984 0.760813
8570.42969 0.759507
8571.25977 0.756638
8572.09961 0.753754
8572.94043 0.750874
8573.76953 0.748011
8574.61035 0.745131
8575.44043 0.742272
8576.28027 0.739399
8577.12012 0.736528
8577.95020 0.733689
8578.79004 0.730821
8579.62988 0.727953
8580.45996 0.727619
8581.29980 0.729344
8582.13965 0.731068
8582.96973 0.732781
8583.80957 0.734499
8584.63965 0.736208
8585.48047 0.737924
8586.32031 0.739628
8587.16016 0.74134
8588.00000 0.743051
8588.83008 0.74476
8589.66016 0.746449
8590.50000 0.746109
8591.33984 0.74441
8592.17969 0.742701
8593.01953 0.740994
8593.84961 0.739298
8594.69043 0.737595
8595.53027 0.735889
8596.37012 0.734195
8597.20996 0.732494
8598.04004 0.730802
8598.87988 0.729102
8599.71973 0.727412
8600.55957 0.726743
8601.40039 0.726592
8602.23047 0.726441
8603.07031 0.726287
8603.91016 0.726137
8604.75000 0.725985
8605.58984 0.725834
8606.42969 0.725681
8607.26953 0.725528
8608.09961 0.725374
8608.94043 0.72522
8609.78027 0.725066
8610.62988 0.724734
8611.45996 0.724344
8612.29980 0.72395
8613.13965 0.723556
8613.98047 0.723164
8614.82031 0.722771
8615.66016 0.722378
8616.50000 0.721983
8617.33984 0.721587
8618.17969 0.721194
8619.01953 0.7208
8619.86035 0.720408
8620.70020 0.720713
8621.54004 0.721161
8622.37988 0.721602
8623.21973 0.722045
8624.05957 0.72249
8624.90039 0.722928
8625.74023 0.723371
8626.58984 0.723814
8627.41992 0.724252
8628.26953 0.724692
8629.09961 0.725129
8629.95020 0.725565
8630.79004 0.725333
8631.62988 0.725056
8632.48047 0.724778
8633.32031 0.7245
8634.15039 0.724225
8635.00000 0.723946
8635.83008 0.723669
8636.67969 0.723391
8637.51953 0.723113
8638.36035 0.722836
8639.20996 0.722556
8640.04980 0.722219
8640.88965 0.720968
8641.73047 0.719714
8642.57031 0.718465
8643.41992 0.71721
8644.25977 0.715955
8645.09961 0.714713
8645.94043 0.71346
8646.79004 0.712207
8647.62988 0.710962
8648.46973 0.709709
8649.30957 0.708463
8650.16016 0.707523
8651.00000 0.70792
8651.84961 0.708314
8652.69043 0.708708
8653.53027 0.709103
8654.37988 0.709497
8655.21973 0.70989
8656.05957 0.710279
8656.91016 0.710673
8657.75000 0.711065
8658.58984 0.711453
8659.44043 0.711844
8660.28027 0.712011
8661.12988 0.711733
8661.96973 0.711453
8662.80957 0.711176
8663.66016 0.710897
8664.50000 0.710619
8665.34961 0.71034
8666.20020 0.710061
8667.04004 0.709782
8667.87988 0.709505
8668.73047 0.709225
8669.57031 0.708948
8670.41992 0.708215
8671.25977 0.707017
8672.11035 0.705824
8672.95020 0.704625
8673.79980 0.703429
8674.65039 0.70224
8675.49023 0.70105
8676.33984 0.699854
8677.17969 0.698661
8678.03027 0.697467
8678.87012 0.69629
8679.71973 0.695096
8680.55957 0.694812
8681.41016 0.694979
8682.25977 0.695146
8683.09961 0.695311
8683.95020 0.695477
8684.79980 0.695643
8685.63965 0.695807
8686.49023 0.695972
8687.33984 0.696136
8688.19043 0.6963
8689.03027 0.696461
8689.87012 0.696623
8690.71973 0.69622
8691.57031 0.695717
8692.41992 0.695217
8693.26953 0.694716
8694.11035 0.694216
8694.95996 0.693715
8695.80957 0.693214
8696.66016 0.692711
8697.50977 0.692208
8698.34961 0.69171
8699.20020 0.691207
8700.04980 0.69068
8700.88965 0.689743
8701.74023 0.688796
8702.58984 0.687851
8703.44043 0.686912
8704.29004 0.685967
8705.13965 0.685023
8705.98047 0.684084
8706.83984 0.683142
8707.67969 0.682205
8708.53027 0.681263
8709.37988 0.680326
8710.23047 0.679822
8711.08008 0.680499
8711.92969 0.681175
8712.76953 0.68184
8713.62988 0.682514
8714.46973 0.683184
8715.32031 0.683856
8716.17969 0.684527
8717.01953 0.685192
8717.87988 0.685861
8718.73047 0.686531
8719.57031 0.687194
8720.42969 0.68694
8721.26953 0.685773
8722.12012 0.684602
8722.98047 0.68343
8723.82031 0.682271
8724.66992 0.681101
8725.51953 0.679931
8726.37012 0.678767
8727.23047 0.677598
8728.07031 0.676438
8728.92969 0.675269
8729.78027 0.674105
8730.62988 0.673641
8731.48047 0.673422
8732.33008 0.673206
8733.17969 0.672987
8734.04004 0.672766
8734.87988 0.672549
8735.73047 0.67233
8736.58984 0.67211
8737.44043 0.671891
8738.29004 0.671672
8739.15039 0.671451
8739.99023 0.671233
8740.84961 0.671066
8741.70020 0.670899
8742.54980 0.670733
8743.41016 0.670567
8744.25977 0.670401
8745.11035 0.670233
8745.95996 0.670067
8746.80957 0.6699
8747.66992 0.669732
8748.50977 0.669564
8749.37012 0.669396
8750.23047 0.668984
8751.08008 0.66789
8751.92969 0.666792
8752.79004 0.665693
8753.63965 0.664601
8754.49023 0.663511
8755.33984 0.662415
8756.20020 0.66132
8757.04980 0.660228
8757.90039 0.659144
8758.75977 0.658051
8759.61035 0.656965
8760.45996 0.656798
8761.32031 0.657418
8762.16992 0.658031
8763.03027 0.658649
8763.87988 0.659264
8764.73047 0.659874
8765.58984 0.660488
8766.44043 0.661099
8767.29980 0.661713
8768.16016 0.662326
8769.00000 0.662928
8769.86035 0.66354
8770.71973 0.663404
8771.57031 0.663124
8772.42969 0.662842
8773.28027 0.662562
8774.13965 0.662281
8774.99023 0.661998
8775.84961 0.661719
8776.70020 0.661436
8777.55957 0.661155
8778.41992 0.660872
8779.26953 0.66059
8780.12012 0.660298
8780.98047 0.659919
8781.83984 0.65954
8782.69043 0.659163
8783.54980 0.658782
8784.41016 0.658401
8785.25977 0.658024
8786.12012 0.657645
8786.96973 0.657269
8787.83008 0.65689
8788.69043 0.65651
8789.54980 0.656133
8790.40039 0.655737
8791.25977 0.655325
8792.11035 0.654915
8792.96973 0.654501
8793.83008 0.654091
8794.69043 0.653679
8795.54980 0.653266
8796.40039 0.652856
8797.25977 0.652442
8798.12012 0.652028
8798.96973 0.651618
8799.83008 0.651207
8800.69043 0.651294
8801.54980 0.651506
8802.41016 0.651716
8803.25977 0.651923
8804.12012 0.652132
8804.98047 0.652338
8805.83984 0.652546
8806.70020 0.652753
8807.54980 0.652958
8808.41016 0.653164
8809.26953 0.653369
8810.12988 0.653484
8810.99023 0.653082
8811.84961 0.652684
8812.70996 0.652282
8813.57031 0.651881
8814.41992 0.651485
8815.28027 0.651084
8816.13965 0.650683
8817.00000 0.650285
8817.86035 0.649885
8818.71973 0.649484
8819.58008 0.649086
8820.44043 0.648779
8821.29980 0.648563
8822.16016 0.648346
8823.01953 0.64813
8823.87988 0.647913
8824.74023 0.647696
8825.59961 0.647478
8826.45996 0.647263
8827.32031 0.647046
8828.17969 0.64683
8829.04004 0.646612
8829.90039 0.646394
8830.75977 0.646145
8831.62012 0.64589
8832.49023 0.645635
8833.34961 0.645381
8834.20996 0.645127
8835.07031 0.644871
8835.92969 0.644618
8836.79980 0.644362
8837.65039 0.644109
8838.50977 0.643852
8839.37012 0.643597
8840.24023 0.643426
8841.09961 0.643475
8841.95996 0.643522
8842.82031 0.64357
8843.69043 0.643618
8844.54980 0.643664
8845.41016 0.64371
8846.26953 0.643755
8847.12988 0.6438
8848.00000 0.643845
8848.84961 0.64389
8849.71973 0.643935
8850.58008 0.64351
8851.44043 0.642861
8852.30957 0.64221
8853.16992 0.641561
8854.03027 0.640911
8854.90039 0.640261
8855.75977 0.639614
8856.62012 0.638965
8857.49023 0.638318
8858.34961 0.637668
8859.21973 0.637017
8860.07031 0.636401
8860.94043 0.63608
8861.80957 0.635759
8862.66992 0.635438
8863.53027 0.635116
8864.40039 0.634793
8865.25977 0.634473
8866.12988 0.634153
8866.99023 0.633832
8867.84961 0.633507
8868.71973 0.633186
8869.58008 0.632862
8870.45020 0.632326
8871.32031 0.631595
8872.16992 0.63087
8873.04004 0.630138
8873.90039 0.62941
8874.76953 0.628679
8875.63965 0.627948
8876.50000 0.627222
8877.37012 0.626492
8878.23047 0.625761
8879.09961 0.625036
8879.96973 0.624309
8880.83008 0.624034
8881.69043 0.623778
8882.55957 0.623521
8883.41992 0.623268
8884.29004 0.623012
8885.16016 0.622754
8886.01953 0.622498
8886.88965 0.62224
8887.75000 0.621987
8888.62012 0.62173
8889.49023 0.621473
8890.34961 0.621118
8891.21973 0.620621
8892.08984 0.620126
8892.95996 0.619629
8893.83008 0.619132
8894.67969 0.618641
8895.54980 0.618145
8896.41992 0.617648
8897.29004 0.617154
8898.16016 0.616656
8899.03027 0.616159
8899.88965 0.615664
8900.75977 0.615643
8901.62988 0.615693
8902.50000 0.615741
8903.36035 0.615786
8904.23047 0.615832
8905.09961 0.615876
8905.96973 0.615924
8906.83008 0.615969
8907.70020 0.616013
8908.57031 0.616056
8909.44043 0.6161
8910.30957 0.615497
8911.16992 0.613729
8912.04980 0.611952
8912.91992 0.61018
8913.78027 0.608414
8914.65039 0.606641
8915.51953 0.604879
8916.38965 0.603107
8917.25977 0.60134
8918.12012 0.599593
8919.00000 0.597827
8919.86035 0.596074
8920.73047 0.595529
8921.59961 0.59521
8922.46973 0.594895
8923.33984 0.594579
8924.21973 0.594261
8925.08008 0.593944
8925.95996 0.593629
8926.82031 0.593312
8927.69043 0.592994
8928.57031 0.592676
8929.42969 0.592363
8930.29980 0.592259
8931.17969 0.592556
8932.04004 0.592851
8932.91992 0.593147
8933.78027 0.593443
8934.66016 0.593738
8935.53027 0.594031
8936.40039 0.594321
8937.26953 0.594615
8938.15039 0.594907
8939.00977 0.595197
8939.88965 0.595488
8940.75000 0.594977
8941.62988 0.594343
8942.50000 0.593709
8943.37012 0.593077
8944.24023 0.592443
8945.12012 0.591812
8945.99023 0.591181
8946.86035 0.590548
8947.73047 0.589918
8948.59961 0.589287
8949.46973 0.588658
8950.34961 0.587976
8951.21973 0.587218
8952.09961 0.586464
8952.95996 0.585716
8953.83984 0.584963
8954.70996 0.584212
8955.58008 0.583459
8956.45996 0.582704
8957.33008 0.581955
8958.20020 0.581203
8959.08008 0.580447
8959.95020 0.5797
8960.83008 0.578608
8961.69043 0.577505
8962.57031 0.576394
8963.45020 0.575285
8964.30957 0.574189
8965.19043 0.573082
8966.07031 0.571975
8966.94043 0.570875
8967.80957 0.569768
8968.67969 0.568671
8969.55957 0.567568
8970.44043 0.567153
8971.30957 0.567429
8972.19043 0.567705
8973.05957 0.567978
8973.92969 0.568253
8974.80957 0.568526
8975.67969 0.568797
8976.55957 0.56907
8977.42969 0.569341
8978.30957 0.569611
8979.17969 0.569882
8980.05957 0.570104
8980.92969 0.569663
8981.80957 0.569223
8982.67969 0.568783
8983.55957 0.568342
8984.44043 0.567901
8985.30957 0.567462
8986.19043 0.567022
8987.05957 0.566583
8987.94043 0.566146
8988.82031 0.565706
8989.69043 0.565265
8990.57031 0.565129
8991.44043 0.565161
8992.32031 0.56519
8993.20020 0.565218
8994.08008 0.565247
8994.95020 0.565276
8995.83008 0.565304
8996.70020 0.56533
8997.58008 0.565359
8998.45996 0.565386
8999.33008 0.565413
9000.20996 0.565455
9001.08984 0.565547
9001.96973 0.565643
9002.84961 0.565735
9003.71973 0.565827
9004.59961 0.56592
9005.48047 0.56601
9006.34961 0.566098
9007.24023 0.566189
9008.11035 0.566276
9008.99023 0.566365
9009.87012 0.566454
9010.74023 0.566211
9011.62012 0.565906
9012.50000 0.565602
9013.37988 0.565301
9014.25977 0.564997
9015.13965 0.564695
9016.01953 0.56439
9016.90039 0.564087
9017.76953 0.563783
9018.66016 0.563478
9019.53027 0.563176
9020.41016 0.562785
9021.29980 0.562295
9022.16992 0.561814
9023.04980 0.561328
9023.92969 0.560838
9024.80957 0.560352
9025.69043 0.559866
9026.57031 0.559379
9027.45020 0.558893
9028.33008 0.558406
9029.20996 0.557922
9030.08984 0.557433
9030.96973 0.556941
9031.84961 0.556452
9032.73047 0.555959
9033.61035 0.555466
9034.49023 0.55498
9035.37012 0.554489
9036.25000 0.553999
9037.12988 0.553508
9038.00977 0.553016
9038.88965 0.552527
9039.78027 0.552034
9040.66016 0.55171
9041.54004 0.551444
9042.41992 0.551179
9043.29980 0.550912
9044.17969 0.550645
9045.07031 0.550375
9045.94043 0.550111
9046.83008 0.549844
9047.70996 0.549577
9048.58984 0.549311
9049.46973 0.549041
9050.34961 0.548565
9051.24023 0.547771
9052.12012 0.546976
9053.00000 0.546188
9053.88965 0.545398
9054.76953 0.544611
9055.65039 0.543819
9056.54004 0.543028
9057.41016 0.542247
9058.29980 0.541457
9059.17969 0.540667
9060.05957 0.539925
9060.95020 0.539762
9061.83008 0.539602
9062.70996 0.53944
9063.59961 0.539277
9064.48047 0.539116
9065.36035 0.538955
9066.25000 0.538793
9067.12988 0.538629
9068.01953 0.538461
9068.90039 0.538297
9069.78027 0.538135
9070.66992 0.538288
9071.54980 0.538546
9072.42969 0.538806
9073.32031 0.539063
9074.20020 0.539318
9075.08984 0.539573
9075.98047 0.539826
9076.86035 0.540081
9077.75000 0.540334
9078.62988 0.540585
9079.50977 0.540836
9080.40039 0.540356
9081.28027 0.539009
9082.16992 0.537649
9083.04980 0.536295
9083.94043 0.534934
9084.83008 0.533574
9085.70996 0.532224
9086.59961 0.530868
9087.48047 0.529514
9088.37012 0.528166
9089.25000 0.526813
9090.13965 0.525658
9091.03027 0.525528
9091.91992 0.525396
9092.79004 0.525265
9093.67969 0.525133
9094.57031 0.525
9095.45020 0.524866
9096.33984 0.524733
9097.23047 0.524602
9098.12012 0.524467
9099.00000 0.524332
9099.88965 0.524198
9100.78027 0.523407
9101.66016 0.522526
9102.54980 0.521641
9103.44043 0.520757
9104.32031 0.519883
9105.20996 0.518997
9106.09961 0.518115
9106.99023 0.517237
9107.87988 0.516357
9108.76953 0.515476
9109.65039 0.514599
9110.54004 0.514747
9111.42969 0.515554
9112.32031 0.516364
9113.20996 0.517171
9114.08984 0.517974
9114.98047 0.51878
9115.87012 0.519584
9116.75000 0.520377
9117.65039 0.521177
9118.53027 0.521971
9119.41992 0.522769
9120.30957 0.523043
9121.20020 0.522364
9122.08984 0.521683
9122.98047 0.520999
9123.87012 0.520319
9124.75977 0.519638
9125.65039 0.51896
9126.54004 0.518279
9127.42969 0.517596
9128.30957 0.516922
9129.20996 0.516242
9130.09961 0.515525
9130.99023 0.514517
9131.87988 0.513504
9132.75977 0.512498
9133.66016 0.511487
9134.54980 0.510476
9135.44043 0.509471
9136.33008 0.508463
9137.21973 0.507455
9138.11035 0.506453
9139.00000 0.505447
9139.88965 0.504453
9140.78027 0.504297
9141.66992 0.504264
9142.55957 0.50423
9143.45020 0.504195
9144.34961 0.50416
9145.24023 0.504125
9146.12988 0.504091
9147.01953 0.504052
9147.91016 0.504017
9148.80957 0.503981
9149.70020 0.503943
9150.58984 0.503921
9151.49023 0.503905
9152.37012 0.503889
9153.25977 0.503872
9154.15039 0.503853
9155.04980 0.503836
9155.94043 0.503817
9156.83008 0.5038
9157.73047 0.503781
9158.62012 0.503759
9159.50977 0.503737
9160.41016 0.503433
9161.29980 0.502793
9162.19043 0.502149
9163.08984 0.501504
9163.96973 0.500866
9164.87012 0.500223
9165.75977 0.499583
9166.66016 0.49894
9167.54980 0.498298
9168.44043 0.497658
9169.33984 0.497015
9170.23047 0.496505
9171.12012 0.496364
9172.01953 0.496224
9172.91016 0.496084
9173.80957 0.49594
9174.70020 0.495798
9175.58984 0.495657
9176.49023 0.495515
9177.38965 0.49537
9178.28027 0.495226
9179.16992 0.495083
9180.07031 0.494923
9180.95996 0.494574
9181.86035 0.494223
9182.75000 0.493873
9183.65039 0.493522
9184.54980 0.493171
9185.44043 0.492822
9186.33984 0.492471
9187.23047 0.492123
9188.12012 0.491771
9189.01953 0.49142
9189.91016 0.491069
9190.80957 0.490958
9191.70996 0.490869
9192.59961 0.490781
9193.50000 0.490691
9194.40039 0.490602
9195.29004 0.490513
9196.19043 0.490423
9197.08984 0.490332
9197.98047 0.490239
9198.87988 0.490148
9199.76953 0.490057
9200.66992 0.4901
9201.57031 0.490188
9202.45996 0.490277
9203.36035 0.490366
9204.25977 0.490453
9205.16016 0.49054
9206.05957 0.490627
9206.95020 0.490709
9207.84961 0.490795
9208.75000 0.49088
9209.65039 0.490964
9210.54980 0.490652
9211.44043 0.490091
9212.33984 0.489524
9213.24023 0.488958
9214.12988 0.488393
9215.03027 0.487827
9215.92969 0.487263
9216.83008 0.486699
9217.73047 0.486132
9218.62012 0.485568
9219.51953 0.485003
9220.41992 0.484645
9221.32031 0.484514
9222.21973 0.484382
9223.11035 0.484253
9224.01953 0.484121
9224.91992 0.483992
9225.80957 0.483861
9226.71973 0.483727
9227.62012 0.483594
9228.50977 0.483464
9229.41992 0.483332
9230.30957 0.483096
9231.21973 0.482666
9232.12012 0.482238
9233.00977 0.481813
9233.91992 0.481383
9234.82031 0.480956
9235.70996 0.480532
9236.61035 0.480102
9237.50977 0.479676
9238.41016 0.479248
9239.32031 0.47882
9240.20996 0.478391
9241.12012 0.47795
9242.01953 0.477508
9242.91992 0.477073
9243.82031 0.476631
9244.71973 0.476194
9245.62012 0.475755
9246.53027 0.475315
9247.41992 0.47488
9248.32031 0.47444
9249.21973 0.474
9250.12988 0.473644
9251.03027 0.473822
9251.92969 0.473996
9252.83008 0.474168
9253.74023 0.474344
9254.63965 0.474516
9255.54004 0.474687
9256.44043 0.474858
9257.33984 0.475028
9258.25000 0.475197
9259.15039 0.475365
9260.04980 0.475518
9260.95020 0.475418
9261.84961 0.47532
9262.75977 0.475221
9263.66016 0.475122
9264.55957 0.475022
9265.46973 0.474921
9266.37012 0.474821
9267.26953 0.474719
9268.17969 0.474615
9269.08008 0.474512
9269.99023 0.474409
9270.87988 0.47387
9271.79004 0.473319
9272.69043 0.472767
9273.59961 0.472218
9274.50000 0.471667
9275.41016 0.471117
9276.30957 0.470569
9277.21973 0.470017
9278.12012 0.46947
9279.01953 0.468919
9279.92969 0.468371
9280.83008 0.467751
9281.74023 0.46712
9282.65039 0.466493
9283.54980 0.465871
9284.45020 0.465243
9285.34961 0.464619
9286.25977 0.463993
9287.16992 0.463366
9288.07031 0.462744
9288.98047 0.462116
9289.88965 0.461489
9290.79004 0.46136
9291.70020 0.4613
9292.59961 0.461242
9293.50977 0.461182
9294.41016 0.46112
9295.30957 0.461059
9296.21973 0.460997
9297.12988 0.460935
9298.03027 0.460876
9298.94043 0.46081
9299.84961 0.460745
9300.75977 0.460304
9301.66992 0.459784
9302.57031 0.459268
9303.48047 0.458752
9304.38965 0.458234
9305.29004 0.457719
9306.20020 0.4572
9307.09961 0.456688
9308.00977 0.456171
9308.91992 0.455651
9309.82031 0.455138
9310.73047 0.454955
9311.63965 0.454853
9312.54980 0.45475
9313.45996 0.454645
9314.36035 0.454541
9315.26953 0.454436
9316.17969 0.454331
9317.08984 0.454224
9318.00000 0.454119
9318.91016 0.454012
9319.80957 0.453906
9320.71973 0.453326
9321.62988 0.452628
9322.54004 0.451926
9323.45020 0.451224
9324.34961 0.450528
9325.26953 0.449826
9326.17969 0.449126
9327.08008 0.44843
9328.00000 0.447732
9328.90039 0.447038
9329.80957 0.446339
9330.73047 0.445851
9331.62988 0.445422
9332.54004 0.444991
9333.44043 0.444564
9334.36035 0.444131
9335.26953 0.443699
9336.17969 0.443268
9337.08984 0.442834
9338.00000 0.442403
9338.91016 0.441974
9339.82031 0.441543
9340.73047 0.441229
9341.63965 0.440944
9342.54980 0.440659
9343.45996 0.440374
9344.37012 0.440086
9345.28027 0.439799
9346.19043 0.439515
9347.09961 0.439227
9348.00977 0.43894
9348.92969 0.43865
9349.83984 0.438364
9350.75000 0.43792
9351.66016 0.437443
9352.58008 0.436965
9353.49023 0.436489
9354.40039 0.436011
9355.29980 0.435537
9356.21973 0.435058
9357.12988 0.43458
9358.04004 0.434104
9358.95996 0.433627
9359.87012 0.433147
9360.78027 0.432686
9361.69043 0.432225
9362.59961 0.431767
9363.51953 0.431305
9364.42969 0.430844
9365.33984 0.430385
9366.25977 0.429925
9367.16992 0.429468
9368.08008 0.42901
9369.00000 0.428548
9369.91016 0.428091
9370.82031 0.427645
9371.74023 0.4272
9372.65039 0.426758
9373.55957 0.426313
9374.48047 0.42587
9375.38965 0.425429
9376.30957 0.424983
9377.21973 0.424543
9378.13965 0.424098
9379.04980 0.423656
9379.95996 0.423215
9380.87012 0.422611
9381.79004 0.422001
9382.70020 0.421394
9383.62012 0.420784
9384.53027 0.420177
9385.45020 0.419566
9386.36035 0.418959
9387.28027 0.418354
9388.19043 0.417743
9389.11035 0.417135
9390.01953 0.416537
9390.94043 0.416231
9391.84961 0.415922
9392.76953 0.415611
9393.69043 0.415301
9394.59961 0.414992
9395.51953 0.41468
9396.42969 0.414369
9397.34961 0.41406
9398.26953 0.413746
9399.17969 0.413435
9400.09961 0.413074
9401.01953 0.412293
9401.92969 0.411515
9402.84961 0.410736
9403.75977 0.40996
9404.67969 0.409186
9405.59961 0.408407
9406.50977 0.407635
9407.42969 0.406857
9408.34961 0.40608
9409.25977 0.405309
9410.17969 0.404362
9411.09961 0.402719
9412.01953 0.401086
9412.94043 0.399446
9413.84961 0.397821
9414.76953 0.396186
9415.69043 0.394554
9416.59961 0.392945
9417.51953 0.391318
9418.44043 0.389703
9419.34961 0.388083
9420.28027 0.386997
9421.19043 0.387155
9422.11035 0.387312
9423.03027 0.387468
9423.95020 0.387622
9424.87012 0.387775
9425.78027 0.387927
9426.70996 0.388078
9427.62988 0.388226
9428.54004 0.388373
9429.45996 0.388519
9430.37988 0.388318
9431.29980 0.387636
9432.21973 0.38695
9433.13965 0.386269
9434.05957 0.385582
9434.98047 0.3849
9435.90039 0.384219
9436.82031 0.383532
9437.74023 0.382849
9438.66016 0.38217
9439.58008 0.381488
9440.49023 0.38076
9441.41992 0.379977
9442.33984 0.379196
9443.25977 0.37842
9444.17969 0.377638
9445.09961 0.376857
9446.01953 0.376086
9446.94043 0.375304
9447.86035 0.374533
9448.78027 0.373758
9449.70996 0.37298
9450.62012 0.372246
9451.54980 0.371523
9452.46973 0.370807
9453.38965 0.370092
9454.30957 0.369372
9455.23047 0.368659
9456.15039 0.36794
9457.08008 0.367223
9458.00000 0.366507
9458.91992 0.365796
9459.83984 0.36508
9460.75977 0.364257
9461.69043 0.363405
9462.61035 0.362561
9463.53027 0.361714
9464.45996 0.360866
9465.37012 0.360028
9466.29980 0.359183
9467.21973 0.358339
9468.13965 0.3575
9469.07031 0.356656
9469.99023 0.35582
9470.91016 0.355423
9471.83984 0.355031
9472.75977 0.354639
9473.67969 0.354247
9474.61035 0.353855
9475.53027 0.353465
9476.45996 0.353073
9477.37012 0.352685
9478.29980 0.352292
9479.21973 0.351901
9480.15039 0.351456
9481.07031 0.350728
9482.00000 0.349995
9482.91992 0.349273
9483.84961 0.348545
9484.76953 0.347821
9485.69043 0.347094
9486.62012 0.346368
9487.54004 0.345649
9488.46973 0.344924
9489.40039 0.3442
9490.30957 0.343639
9491.24023 0.343371
9492.16016 0.343106
9493.08984 0.342838
9494.01953 0.342568
9494.94043 0.342299
9495.87012 0.342031
9496.79980 0.341762
9497.71973 0.341492
9498.65039 0.341221
9499.57031 0.340951
9500.50000 0.34071
9501.41992 0.340497
9502.34961 0.340281
9503.26953 0.340063
9504.20020 0.339848
9505.12988 0.339631
9506.05957 0.339414
9506.98047 0.339194
9507.91016 0.338975
9508.83984 0.338757
9509.75977 0.338537
9510.69043 0.338457
9511.62012 0.338422
9512.54980 0.338386
9513.48047 0.338349
9514.40039 0.338312
9515.32031 0.338273
9516.25000 0.338234
9517.17969 0.338193
9518.11035 0.338153
9519.03027 0.338109
9519.95996 0.33807
9520.90039 0.33784
9521.82031 0.337606
9522.75000 0.33737
9523.67969 0.337135
9524.61035 0.336903
9525.54004 0.336666
9526.45996 0.336431
9527.38965 0.336194
9528.32031 0.335956
9529.25000 0.33572
9530.17969 0.33545
9531.11035 0.335048
9532.03027 0.334649
9532.96973 0.334247
9533.88965 0.333852
9534.82031 0.33345
9535.75000 0.33305
9536.67969 0.332652
9537.61035 0.33225
9538.54980 0.331847
9539.46973 0.331451
9540.40039 0.330543
9541.33008 0.328966
9542.25977 0.327389
9543.19043 0.325811
9544.12012 0.324245
9545.04980 0.322675
9545.98047 0.321107
9546.91016 0.319551
9547.83984 0.317991
9548.76953 0.316439
9549.70996 0.314883
9550.62988 0.312601
9551.55957 0.30998
9552.50000 0.307353
9553.42969 0.304728
9554.36035 0.302123
9555.29004 0.299511
9556.21973 0.296918
9557.15039 0.294317
9558.08984 0.291721
9559.01953 0.289147
9559.95020 0.28656
9560.88965 0.282521
9561.80957 0.278437
9562.75000 0.274337
9563.66992 0.270294
9564.61035 0.266214
9565.54004 0.262144
9566.46973 0.258105
9567.41016 0.254056
9568.33984 0.250014
9569.26953 0.246007
9570.20996 0.241791
9571.13965 0.236929
9572.07031 0.232053
9573.00977 0.227191
9573.94043 0.222363
9574.87012 0.217522
9575.79980 0.212721
9576.73047 0.20793
9577.66992 0.203128
9578.59961 0.198363
9579.54004 0.19358
9580.46973 0.188627
9581.40039 0.183524
9582.33984 0.178414
9583.26953 0.173312
9584.20996 0.168254
9585.13965 0.163182
9586.08008 0.15815
9587.00977 0.153108
9587.95020 0.148081
9588.87988 0.14312
9589.80957 0.138121
9590.75000 0.133732
9591.67969 0.129532
9592.62012 0.125316
9593.54980 0.121133
9594.49023 0.11694
9595.42969 0.112758
9596.36035 0.10861
9597.29980 0.10445
9598.23047 0.100324
9599.16992 0.0961868
9600.09961 0.0921721
9601.03027 0.0889548
9601.96973 0.085727
9602.91016 0.0825081
9603.83984 0.0793167
9604.78027 0.0761149
9605.70996 0.0729371
9606.65039 0.0697521
9607.58984 0.0665758
9608.51953 0.0634242
9609.45996 0.0602614
9610.40039 0.057532
9611.33984 0.0553871
9612.28027 0.0532348
9613.20020 0.0511134
9614.15039 0.0489727
9615.08008 0.0468389
9616.01953 0.0447217
9616.95996 0.0425999
9617.90039 0.0404837
9618.83008 0.0383846
9619.76953 0.0362784
9620.70996 0.0347833
9621.65039 0.0334742
9622.58984 0.0321704
9623.51953 0.0308758
9624.45996 0.0295781
9625.40039 0.0282843
9626.33008 0.0270091
9627.26953 0.0257214
9628.20996 0.0244456
9629.15039 0.0231671
9630.08984 0.021939
9631.03027 0.0211659
9631.96973 0.0203899
9632.91016 0.0196164
9633.84961 0.0188498
9634.79004 0.0180805
9635.71973 0.0173175
9636.66992 0.0165526
9637.61035 0.0157891
9638.54004 0.0150373
9639.48047 0.0142781
9640.41992 0.0136503
9641.36035 0.0131842
9642.29980 0.0127175
9643.24023 0.0122541
9644.17969 0.0117898
9645.12012 0.0113269
9646.05957 0.0108676
9647.00000 0.0104075
9647.94043 0.00994882
9648.87988 0.00949374
9649.83008 0.00903729
9650.75977 0.00871248
9651.70020 0.00841417
9652.65039 0.00811642
9653.58008 0.00782102
9654.53027 0.00752495
9655.46973 0.00722975
9656.41016 0.0069369
9657.34961 0.00664335
9658.29004 0.00635222
9659.23047 0.00606041
9660.17969 0.00579018
9661.12012 0.00561262
9662.05957 0.00543452
9663.00000 0.00525694
9663.94043 0.0050819
9664.87988 0.00490535
9665.82031 0.00473029
9666.76953 0.00455485
9667.70996 0.00437991
9668.65039 0.00420644
9669.59961 0.00403243
9670.54004 0.00389209
9671.48047 0.00377732
9672.41992 0.00366246
9673.36035 0.00354839
9674.30957 0.00343408
9675.25977 0.00332013
9676.19043 0.00320781
9677.13965 0.00309443
9678.08008 0.0029821
9679.01953 0.00286952
10646.92188 0.0
