# %ECSV 0.9
# ---
# datatype:
# - {name: wavelength, unit: Angstrom, datatype: float32}
# - {name: response, datatype: float32}
# meta: !!omap
# - {band_name: F775W_77}
# - {group_name: ACS_WFC}
wavelength response
5913.27930 0.0
6570.31006 0.00202734
6570.93994 0.00204566
6571.56982 0.00206406
6572.20020 0.00208238
6572.83984 0.0021007
6573.47021 0.00211914
6574.10010 0.00213736
6574.72998 0.0021558
6575.37012 0.00217425
6576.00000 0.0021925
6576.62988 0.00221095
6577.27002 0.0022294
6577.89990 0.00224766
6578.52979 0.00226613
6579.16016 0.0022845
6579.79980 0.00230288
6580.43018 0.00232143
6581.06006 0.00233991
6581.70020 0.00235838
6582.33008 0.00237699
6582.95996 0.00239539
6583.60010 0.002414
6584.22998 0.00243262
6584.85986 0.00245103
6585.50000 0.00246966
6586.14014 0.00248831
6586.77002 0.00250673
6587.39990 0.00252539
6588.02979 0.00254394
6588.66992 0.00256249
6589.29980 0.00258117
6589.93994 0.00259973
6590.56982 0.00261828
6591.20996 0.00263693
6591.83984 0.00265538
6592.47021 0.00267404
6593.10986 0.00269271
6593.74023 0.00271118
6594.37988 0.00272985
6595.00977 0.00274844
6595.64990 0.00276703
6596.27979 0.00278573
6596.91992 0.00280432
6597.54980 0.00282303
6598.18994 0.00284164
6598.81982 0.00286026
6599.45020 0.00287888
6600.08984 0.00289762
6600.72021 0.00291624
6601.35986 0.00293507
6602.00000 0.00295393
6602.64014 0.00297277
6603.27002 0.00299142
6603.89990 0.00301017
6604.54004 0.00302905
6605.18018 0.00304783
6605.81006 0.0030666
6606.45020 0.00308549
6607.08008 0.00310429
6607.70996 0.00312299
6608.35010 0.00314189
6608.99023 0.00316082
6609.62988 0.00317976
6610.25977 0.00319841
6610.89990 0.00321718
6611.52979 0.00323586
6612.16992 0.00325454
6612.81006 0.00327323
6613.43994 0.00329203
6614.08008 0.00331072
6614.72021 0.00332953
6615.35010 0.00334823
6615.99023 0.00336695
6616.62988 0.00338577
6617.25977 0.00340439
6617.89990 0.00342322
6618.54004 0.00344206
6619.16992 0.0034607
6619.81006 0.00347953
6620.45020 0.00349832
6621.08008 0.00351712
6621.72021 0.00353602
6622.35986 0.00355483
6623.00000 0.00357364
6623.64014 0.00359256
6624.27002 0.00361128
6624.91016 0.00363021
6625.54980 0.00364916
6626.18018 0.00366788
6626.81982 0.00368685
6627.45996 0.00370581
6628.10010 0.00372455
6628.72998 0.00374352
6629.37012 0.00376239
6630.00977 0.00378127
6630.64990 0.00380032
6631.29004 0.00381925
6631.91992 0.00383821
6632.56006 0.00385728
6633.20020 0.00387612
6633.83984 0.00389521
6634.47998 0.0039143
6635.10986 0.00393317
6635.75977 0.00395227
6636.39990 0.00397137
6637.02979 0.00399025
6637.66992 0.00400937
6638.31006 0.00402839
6638.95020 0.00404741
6639.58984 0.00406654
6640.22998 0.00408557
6640.87012 0.00410467
6641.50977 0.00412368
6642.14014 0.00414257
6642.77979 0.00416169
6643.41992 0.00418083
6644.06006 0.00419975
6644.70020 0.00421889
6645.33984 0.00423804
6645.97998 0.00425697
6646.62012 0.00427613
6647.25977 0.00429519
6647.89990 0.00431437
6648.54004 0.00433344
6649.18018 0.00435251
6649.81982 0.00437171
6650.45996 0.00439069
6651.10010 0.00440953
6651.74023 0.00442858
6652.37988 0.00444766
6653.02002 0.00446672
6653.66016 0.00448559
6654.29980 0.00450456
6654.93994 0.00452365
6655.58008 0.00454262
6656.22021 0.00456161
6656.85986 0.0045807
6657.50000 0.0045997
6658.14014 0.00461859
6658.77979 0.00463771
6659.43018 0.00465683
6660.06982 0.00467598
6660.70020 0.00469529
6661.35010 0.00471482
6661.99023 0.00473438
6662.62988 0.00475371
6663.27002 0.00477316
6663.91016 0.00479273
6664.54980 0.0048122
6665.18994 0.00483166
6665.83984 0.00485126
6666.47998 0.00487076
6667.12012 0.00489036
6667.75977 0.00490975
6668.39990 0.00492938
6669.04980 0.004949
6669.68018 0.00496843
6670.33008 0.00498781
6670.97021 0.00500694
6671.60986 0.00502586
6672.25977 0.00504499
6672.89990 0.00506403
6673.54004 0.00508307
6674.18018 0.00510223
6674.81982 0.00512127
6675.45996 0.00514032
6676.10986 0.00515948
6676.75000 0.00517843
6677.39014 0.00519761
6678.04004 0.00521678
6678.68018 0.00523573
6679.31982 0.00525492
6679.97021 0.00527412
6680.60010 0.00529356
6681.25000 0.00531326
6681.89014 0.00533285
6682.52979 0.00535246
6683.18018 0.00537218
6683.81982 0.0053918
6684.45996 0.00541144
6685.10986 0.00543117
6685.75000 0.00545071
6686.39014 0.00547047
6687.04004 0.00549024
6687.68018 0.0055098
6688.31982 0.00552958
6688.97021 0.00554926
6689.60986 0.00556895
6690.25977 0.00558867
6690.89990 0.00560813
6691.54980 0.00562772
6692.18994 0.0056472
6692.83008 0.00566657
6693.47998 0.00568618
6694.12012 0.00570578
6694.75977 0.00572518
6695.41016 0.00574481
6696.06006 0.00576444
6696.68994 0.00578386
6697.33984 0.0058035
6697.97998 0.00582305
6698.62988 0.00584269
6699.27979 0.00586223
6699.91992 0.00588178
6700.56982 0.00590126
6701.20996 0.00592061
6701.85010 0.00593984
6702.50000 0.0059593
6703.14990 0.00597876
6703.79004 0.00599824
6704.43018 0.00601748
6705.08008 0.00603696
6705.72998 0.00605634
6706.37012 0.00607573
6707.02002 0.0060951
6707.66016 0.00611462
6708.31006 0.006134
6708.95020 0.00615339
6709.60010 0.00617279
6710.24023 0.00619254
6710.89014 0.00621267
6711.52979 0.00623257
6712.18018 0.00625271
6712.83008 0.00627286
6713.47021 0.0062928
6714.12012 0.00631296
6714.77002 0.00633303
6715.41016 0.0063531
6716.06006 0.00637318
6716.70996 0.00639338
6717.35010 0.00641347
6718.00000 0.0064337
6718.64014 0.00645369
6719.29004 0.00647393
6719.93994 0.00649417
6720.58008 0.00651387
6721.22998 0.00653376
6721.87988 0.00655365
6722.52002 0.00657332
6723.16992 0.00659322
6723.81982 0.00661301
6724.45996 0.00663282
6725.10986 0.00665275
6725.75977 0.00667256
6726.41016 0.00669239
6727.06006 0.00671235
6727.70020 0.00673206
6728.35010 0.00675202
6729.00000 0.00677198
6729.64014 0.00679172
6730.29004 0.00681154
6730.93994 0.00683115
6731.58984 0.00685055
6732.24023 0.00687019
6732.87988 0.00688971
6733.52979 0.00690925
6734.18018 0.00692888
6734.83008 0.00694841
6735.47021 0.00696795
6736.12012 0.0069876
6736.77002 0.00700704
6737.41992 0.0070267
6738.06982 0.00704638
6738.70996 0.00706582
6739.35986 0.00708549
6740.00977 0.00710506
6740.66016 0.00712489
6741.31006 0.0071448
6741.95996 0.00716461
6742.60986 0.00718454
6743.25977 0.00720437
6743.91016 0.00722423
6744.56006 0.00724406
6745.20996 0.007264
6745.85010 0.00728375
6746.50000 0.00730371
6747.14990 0.00732368
6747.79980 0.00734345
6748.45020 0.00736343
6749.10010 0.0073833
6749.75000 0.0074033
6750.39990 0.00742348
6751.04980 0.00744384
6751.70020 0.00746432
6752.35010 0.00748468
6752.99023 0.00750494
6753.64990 0.00752546
6754.29980 0.00754597
6754.95020 0.00756648
6755.60010 0.00758678
6756.25000 0.00760732
6756.89990 0.00762775
6757.54980 0.00764819
6758.20020 0.00766864
6758.85010 0.00768921
6759.50000 0.00770967
6760.14990 0.00772989
6760.79980 0.00774943
6761.45020 0.00776883
6762.10010 0.00778835
6762.75000 0.00780766
6763.39990 0.00782718
6764.06006 0.00784672
6764.70020 0.00786603
6765.35986 0.00788557
6766.00977 0.007905
6766.66016 0.00792443
6767.31006 0.00794385
6767.95996 0.00796341
6768.60986 0.00798283
6769.27002 0.00800239
6769.91016 0.00802172
6770.56982 0.00804199
6771.22021 0.00806238
6771.87012 0.00808254
6772.52002 0.00810294
6773.18018 0.00812336
6773.81982 0.00814353
6774.47998 0.00816395
6775.12988 0.00818426
6775.77979 0.00820457
6776.43994 0.00822501
6777.08984 0.00824535
6777.74023 0.00826568
6778.39014 0.00828613
6779.04004 0.00830636
6779.68994 0.00832684
6780.35010 0.00834727
6781.00000 0.00836746
6781.64990 0.00838789
6782.31006 0.00840832
6782.95996 0.00842852
6783.60986 0.00844895
6784.25977 0.00846928
6784.91016 0.00848963
6785.56982 0.00851007
6786.22021 0.00853041
6786.87988 0.00855078
6787.52979 0.00857125
6788.18018 0.0085915
6788.83008 0.00861198
6789.49023 0.00863247
6790.14014 0.00865268
6790.79980 0.00867289
6791.45020 0.0086931
6792.10010 0.00871309
6792.75977 0.0087333
6793.41016 0.00875339
6794.06006 0.00877363
6794.72021 0.00879375
6795.37012 0.00881388
6796.02979 0.00883411
6796.68018 0.00885423
6797.33008 0.00887425
6797.99023 0.00889451
6798.64014 0.00891477
6799.29004 0.00893482
6799.95020 0.00895508
6800.60010 0.00912928
6801.25977 0.00931747
6801.91016 0.00950456
6802.56982 0.00969167
6803.22998 0.00988008
6803.87988 0.0100673
6804.52979 0.0102535
6805.18994 0.010442
6805.83984 0.0106303
6806.50000 0.0108189
6807.14990 0.0110053
6807.81006 0.0111939
6808.47021 0.0113825
6809.12012 0.0115691
6809.77002 0.0117568
6810.43018 0.0119845
6811.08008 0.0122316
6811.74023 0.0124786
6812.39990 0.0127272
6813.04980 0.0129743
6813.70996 0.013223
6814.35986 0.0134688
6815.02002 0.0137177
6815.68018 0.0139664
6816.33008 0.0142125
6816.99023 0.0144615
6817.64990 0.0147104
6818.29980 0.0149566
6818.95020 0.0152041
6819.60986 0.0154534
6820.27002 0.0157457
6820.91992 0.0161063
6821.58008 0.0164649
6822.22998 0.0168235
6822.89014 0.0171843
6823.54980 0.0175412
6824.20996 0.0179025
6824.85986 0.0182635
6825.52002 0.0186206
6826.18018 0.0189821
6826.83984 0.0193437
6827.49023 0.019701
6828.14990 0.0200627
6828.79980 0.0204226
6829.45996 0.0207826
6830.12012 0.0211558
6830.77979 0.0215775
6831.43018 0.0219993
6832.08984 0.0224237
6832.74023 0.0228432
6833.39990 0.0232681
6834.06006 0.0236928
6834.72021 0.0241128
6835.37988 0.0245376
6836.02979 0.0249603
6836.68994 0.025383
6837.35010 0.0258084
6838.00977 0.0262316
6838.66992 0.0266545
6839.33008 0.0270801
6839.97998 0.0275011
6840.64014 0.0280468
6841.29980 0.0285961
6841.95996 0.0291391
6842.62012 0.0296885
6843.27979 0.0302379
6843.93018 0.0307814
6844.58984 0.0313309
6845.25000 0.0318776
6845.91016 0.0324277
6846.56982 0.0329745
6847.22998 0.0335213
6847.89014 0.0340715
6848.54980 0.0346184
6849.20020 0.0351625
6849.85986 0.0357126
6850.52002 0.0363752
6851.18018 0.0370588
6851.83984 0.0377506
6852.50000 0.0384426
6853.16016 0.0391306
6853.81982 0.0398193
6854.47998 0.0405075
6855.14014 0.0412005
6855.79980 0.0418889
6856.45996 0.042578
6857.12012 0.0432672
6857.77979 0.0439606
6858.43994 0.0446541
6859.10010 0.0453401
6859.75977 0.0460343
6860.41992 0.0468185
6861.08008 0.0476447
6861.74023 0.0484809
6862.39990 0.0493124
6863.06006 0.0501441
6863.72021 0.0509767
6864.37988 0.0518137
6865.04004 0.0526466
6865.70996 0.0534841
6866.35986 0.0543125
6867.02002 0.055151
6867.68994 0.0559897
6868.35010 0.0568193
6869.00977 0.0576584
6869.66992 0.0584977
6870.33008 0.0594821
6870.99023 0.0606276
6871.64990 0.06178
6872.31006 0.0629258
6872.97998 0.0640786
6873.64014 0.0652248
6874.29980 0.0663712
6874.95996 0.0675253
6875.62012 0.0686661
6876.27979 0.0698197
6876.95020 0.0709744
6877.60010 0.0721165
6878.27002 0.0732715
6878.93018 0.0744265
6879.58984 0.0755682
6880.25977 0.0768219
6880.91992 0.0782243
6881.58008 0.0796268
6882.24023 0.0810367
6882.89990 0.0824408
6883.56006 0.083844
6884.22998 0.0852558
6884.89014 0.0866524
6885.54980 0.0880647
6886.22021 0.0894784
6886.87988 0.0908756
6887.54004 0.0922896
6888.20020 0.0936956
6888.85986 0.0951019
6889.52979 0.0965179
6890.18994 0.0978974
6890.85010 0.0992108
6891.52002 0.100532
6892.18018 0.101846
6892.83984 0.10316
6893.50977 0.104481
6894.16992 0.105788
6894.83984 0.10711
6895.50000 0.108433
6896.16016 0.10974
6896.83008 0.111064
6897.49023 0.11238
6898.14990 0.113703
6898.81982 0.115019
6899.47998 0.116335
6900.14990 0.11779
6900.81006 0.119692
6901.47021 0.121582
6902.14014 0.123494
6902.79980 0.125407
6903.45996 0.127299
6904.12988 0.129213
6904.79980 0.131127
6905.45996 0.133032
6906.12012 0.134935
6906.79004 0.13684
6907.45020 0.138757
6908.12012 0.140662
6908.77979 0.142568
6909.45020 0.144487
6910.10986 0.146336
6910.77979 0.147915
6911.43994 0.149477
6912.10986 0.151059
6912.77979 0.152641
6913.43994 0.154205
6914.10010 0.155789
6914.77002 0.157363
6915.43018 0.158938
6916.10010 0.160514
6916.77002 0.1621
6917.43018 0.163677
6918.10010 0.165264
6918.75977 0.166842
6919.43018 0.168421
6920.10010 0.170091
6920.75977 0.172204
6921.43018 0.174344
6922.10010 0.176484
6922.75977 0.178599
6923.41992 0.180727
6924.08984 0.182868
6924.75977 0.184996
6925.43018 0.187139
6926.08984 0.189268
6926.75977 0.191398
6927.43018 0.193541
6928.08984 0.195672
6928.75977 0.197804
6929.43018 0.199948
6930.08984 0.202096
6930.75977 0.204448
6931.43018 0.206803
6932.08984 0.20913
6932.75977 0.211485
6933.43018 0.213826
6934.08984 0.216167
6934.75977 0.218522
6935.43018 0.220865
6936.08984 0.223207
6936.77002 0.225563
6937.43018 0.227893
6938.10010 0.23025
6938.77002 0.232607
6939.43018 0.234938
6940.10010 0.2373
6940.77002 0.239677
6941.43994 0.242028
6942.10010 0.244406
6942.77002 0.246773
6943.43994 0.249141
6944.10986 0.251523
6944.77979 0.253891
6945.45020 0.256273
6946.12012 0.258643
6946.77979 0.261001
6947.45020 0.263384
6948.12012 0.265769
6948.79004 0.26813
6949.45996 0.270517
6950.12012 0.272964
6950.79980 0.27575
6951.45996 0.278521
6952.12988 0.281292
6952.79980 0.28408
6953.47021 0.286851
6954.14014 0.289622
6954.81006 0.292393
6955.47998 0.29518
6956.14990 0.297937
6956.81982 0.300726
6957.49023 0.303513
6958.16016 0.306302
6958.83008 0.309059
6959.49023 0.311833
6960.16992 0.314712
6960.83984 0.317845
6961.50000 0.320981
6962.18018 0.324135
6962.85010 0.327271
6963.52002 0.330407
6964.18018 0.333543
6964.85986 0.336697
6965.52979 0.339851
6966.18994 0.342971
6966.87012 0.346126
6967.54004 0.349282
6968.20996 0.352402
6968.87988 0.35554
6969.54980 0.358697
6970.22021 0.36154
6970.89014 0.363785
6971.56006 0.366019
6972.22998 0.368252
6972.91016 0.370499
6973.56982 0.372721
6974.25000 0.374969
6974.91992 0.377217
6975.58984 0.379441
6976.25977 0.38169
6976.93994 0.38394
6977.60010 0.386165
6978.27002 0.388416
6978.95020 0.390654
6979.62012 0.392892
6980.29004 0.395341
6980.95996 0.398039
6981.62988 0.400735
6982.31006 0.40345
6982.97021 0.406133
6983.64990 0.408849
6984.31982 0.411566
6984.99023 0.414251
6985.66016 0.416969
6986.33984 0.419673
6987.00977 0.422376
6987.68018 0.425098
6988.35010 0.427805
6989.02002 0.430512
6989.70020 0.433236
6990.37012 0.436115
6991.04004 0.439177
6991.72021 0.442238
6992.39014 0.445267
6993.06006 0.448332
6993.74023 0.451398
6994.41016 0.454428
6995.08008 0.457494
6995.75000 0.460543
6996.43018 0.463594
6997.10010 0.466661
6997.77002 0.469714
6998.45020 0.472785
6999.12012 0.475838
6999.79004 0.478874
7000.47021 0.48202
7001.14990 0.485201
7001.81006 0.488344
7002.49023 0.491525
7003.16992 0.494707
7003.83984 0.497871
7004.50977 0.501033
7005.18994 0.504195
7005.85986 0.507376
7006.54004 0.510541
7007.20996 0.513704
7007.87988 0.516869
7008.56006 0.520052
7009.22998 0.523198
7009.91016 0.526381
7010.58008 0.528955
7011.25977 0.531434
7011.93018 0.533884
7012.60986 0.536362
7013.27979 0.538826
7013.95996 0.541289
7014.62988 0.543753
7015.31006 0.546232
7015.97998 0.548697
7016.64990 0.551163
7017.33008 0.553627
7018.00977 0.556108
7018.68994 0.558589
7019.35986 0.561041
7020.02979 0.563512
7020.70996 0.565794
7021.37988 0.568051
7022.06006 0.57032
7022.74023 0.572603
7023.41016 0.574873
7024.08984 0.577156
7024.77002 0.57943
7025.43994 0.581701
7026.12012 0.583985
7026.79004 0.586245
7027.47021 0.58853
7028.14990 0.590818
7028.81982 0.593078
7029.50000 0.595365
7030.18018 0.597766
7030.85010 0.600458
7031.52979 0.603181
7032.20020 0.605891
7032.87988 0.6086
7033.56006 0.611324
7034.22998 0.614035
7034.91016 0.616745
7035.58984 0.619474
7036.25977 0.622169
7036.93994 0.624895
7037.62012 0.627624
7038.29004 0.630322
7038.97998 0.633053
7039.64990 0.635766
7040.33008 0.638011
7041.00977 0.639765
7041.68018 0.64151
7042.35986 0.643256
7043.04004 0.645011
7043.72021 0.646755
7044.39014 0.648501
7045.06982 0.650256
7045.75000 0.651991
7046.43018 0.653748
7047.10986 0.655503
7047.77979 0.657239
7048.45996 0.658996
7049.14014 0.660741
7049.81982 0.662487
7050.50000 0.664413
7051.18018 0.666392
7051.85986 0.668381
7052.54004 0.67036
7053.20996 0.672326
7053.89014 0.674316
7054.56982 0.676307
7055.25000 0.678275
7055.93018 0.680265
7056.60986 0.682257
7057.29004 0.684237
7057.97021 0.686217
7058.64014 0.688196
7059.33008 0.690188
7060.00000 0.692171
7060.68018 0.694404
7061.35986 0.696651
7062.04004 0.698883
7062.72021 0.701105
7063.39990 0.70335
7064.08008 0.705597
7064.77002 0.707844
7065.43994 0.710065
7066.12012 0.712311
7066.79980 0.714546
7067.47998 0.716779
7068.16016 0.719013
7068.83984 0.721258
7069.52002 0.723491
7070.20020 0.725527
7070.87988 0.727102
7071.56006 0.728667
7072.25000 0.730242
7072.91992 0.731798
7073.60010 0.733372
7074.29004 0.734947
7074.97021 0.736505
7075.64990 0.738072
7076.33008 0.739648
7077.00977 0.741215
7077.68994 0.742791
7078.37012 0.744358
7079.04980 0.745926
7079.74023 0.747504
7080.41992 0.749294
7081.10010 0.751226
7081.77979 0.753169
7082.45996 0.755092
7083.14014 0.757036
7083.83008 0.758979
7084.50000 0.760902
7085.18994 0.762847
7085.87012 0.764781
7086.54980 0.766716
7087.22998 0.768662
7087.91016 0.770597
7088.60010 0.772532
7089.27979 0.774479
7089.95996 0.776403
7090.64014 0.777463
7091.33008 0.778464
7092.00977 0.779455
7092.68994 0.780456
7093.37988 0.781457
7094.04980 0.782446
7094.74023 0.783447
7095.41992 0.784443
7096.10010 0.785438
7096.79004 0.786439
7097.47021 0.787434
7098.14990 0.788434
7098.83984 0.789429
7099.52002 0.790418
7100.20020 0.79162
7100.89014 0.793306
7101.56982 0.794971
7102.25000 0.796656
7102.93994 0.798334
7103.62012 0.800009
7104.29980 0.801694
7104.99023 0.80337
7105.66992 0.805056
7106.35010 0.806731
7107.04004 0.808406
7107.72021 0.810083
7108.41016 0.811769
7109.08984 0.813436
7109.77002 0.815121
7110.45996 0.817032
7111.14990 0.819053
7111.83008 0.821052
7112.50977 0.823062
7113.20020 0.825085
7113.87988 0.827095
7114.56006 0.829108
7115.25000 0.831131
7115.93994 0.833143
7116.62012 0.835156
7117.29980 0.83717
7117.99023 0.839193
7118.68018 0.841219
7119.35986 0.843219
7120.04980 0.845094
7120.72998 0.844857
7121.41016 0.844621
7122.10010 0.844384
7122.79004 0.844146
7123.47021 0.84391
7124.14990 0.843674
7124.83984 0.843435
7125.52979 0.843198
7126.22021 0.842959
7126.89990 0.842723
7127.58984 0.842484
7128.27002 0.842245
7128.95996 0.842008
7129.64990 0.841769
7130.33008 0.842474
7131.02002 0.844168
7131.70020 0.845882
7132.39014 0.847585
7133.06982 0.849289
7133.75977 0.851001
7134.45020 0.852705
7135.12988 0.85441
7135.81982 0.856122
7136.50977 0.857816
7137.18994 0.85953
7137.87988 0.861244
7138.56982 0.862939
7139.25977 0.864652
7139.93994 0.866356
7140.62988 0.867381
7141.31982 0.86835
7142.00000 0.869312
7142.68994 0.870275
7143.37988 0.871244
7144.06006 0.872203
7144.75000 0.87317
7145.43994 0.874138
7146.12988 0.875096
7146.81982 0.876064
7147.50977 0.877032
7148.18994 0.877991
7148.87988 0.87896
7149.56982 0.879923
7150.25000 0.881067
7150.93994 0.882525
7151.62988 0.883976
7152.31982 0.885435
7153.00977 0.886885
7153.68994 0.888327
7154.39014 0.889786
7155.08008 0.891245
7155.75977 0.892687
7156.45020 0.894147
7157.14014 0.895607
7157.83008 0.897048
7158.52002 0.898506
7159.20996 0.899956
7159.89990 0.901416
7160.58984 0.901498
7161.27002 0.901342
7161.95996 0.901185
7162.64990 0.901027
7163.33984 0.900871
7164.02979 0.900714
7164.72021 0.900557
7165.41016 0.900399
7166.10010 0.900243
7166.79004 0.900084
7167.47998 0.899926
7168.16992 0.899767
7168.85986 0.899611
7169.54980 0.899452
7170.24023 0.89961
7170.93018 0.900367
7171.62012 0.90112
7172.31006 0.901878
7173.00000 0.902638
7173.68994 0.90339
7174.37988 0.904149
7175.06982 0.904908
7175.75977 0.905658
7176.45020 0.906414
7177.14014 0.907174
7177.83008 0.907929
7178.52002 0.908684
7179.22021 0.909443
7179.89990 0.910198
7180.60010 0.910837
7181.27979 0.91145
7181.97998 0.912071
7182.66992 0.912691
7183.35986 0.913303
7184.04980 0.913922
7184.75000 0.914544
7185.43018 0.915158
7186.12988 0.91578
7186.81982 0.916397
7187.50977 0.917013
7188.20020 0.917634
7188.89014 0.918251
7189.58008 0.91887
7190.27979 0.919607
7190.97021 0.920501
7191.66016 0.921408
7192.35010 0.922313
7193.04004 0.923209
7193.74023 0.924116
7194.43018 0.925017
7195.12012 0.925918
7195.81006 0.926826
7196.50977 0.927728
7197.20020 0.928629
7197.89014 0.929537
7198.58008 0.930439
7199.27979 0.931342
7199.97021 0.932249
7200.66016 0.933344
7201.35010 0.93446
7202.04980 0.935576
7202.74023 0.936679
7203.43994 0.937794
7204.12988 0.938903
7204.81982 0.940013
7205.52002 0.94113
7206.20996 0.94224
7206.89990 0.943356
7207.60010 0.944467
7208.27979 0.945571
7208.97998 0.946687
7209.68018 0.947804
7210.37012 0.94845
7211.06006 0.948697
7211.75977 0.948944
7212.45020 0.949189
7213.14990 0.949436
7213.83984 0.949681
7214.54004 0.949927
7215.22998 0.950172
7215.91992 0.950417
7216.62012 0.950663
7217.31006 0.950908
7218.00000 0.951152
7218.70020 0.951399
7219.39990 0.951645
7220.10010 0.951952
7220.77979 0.952641
7221.47998 0.953336
7222.18018 0.954027
7222.87012 0.954718
7223.56006 0.955409
7224.25977 0.956104
7224.95996 0.956794
7225.64990 0.957486
7226.35010 0.958181
7227.04004 0.958873
7227.74023 0.959566
7228.43018 0.960254
7229.12988 0.960949
7229.83008 0.961644
7230.52002 0.961701
7231.20996 0.961549
7231.91016 0.961398
7232.60986 0.961247
7233.29980 0.961096
7234.00000 0.960943
7234.70020 0.960791
7235.39990 0.96064
7236.08984 0.96049
7236.79004 0.960338
7237.47998 0.960185
7238.18018 0.960034
7238.87988 0.959883
7239.56982 0.959731
7240.27002 0.959922
7240.97021 0.960666
7241.66016 0.961407
7242.35986 0.962149
7243.06006 0.962894
7243.75000 0.963635
7244.45020 0.964375
7245.14990 0.965121
7245.83984 0.965859
7246.54004 0.966605
7247.24023 0.967351
7247.93018 0.968089
7248.62988 0.968833
7249.33984 0.969579
7250.02979 0.970263
7250.72998 0.969608
7251.41992 0.968958
7252.12012 0.968307
7252.81982 0.967653
7253.52002 0.967003
7254.22021 0.966353
7254.91992 0.965698
7255.60986 0.965052
7256.31006 0.964398
7257.00977 0.963743
7257.70020 0.963097
7258.41016 0.962443
7259.10010 0.961793
7259.79980 0.961143
7260.50000 0.961548
7261.20020 0.962367
7261.89990 0.963193
7262.60010 0.964014
7263.29980 0.964835
7263.99023 0.965656
7264.70020 0.966481
7265.39014 0.967297
7266.08984 0.968124
7266.79980 0.968947
7267.49023 0.969764
7268.18994 0.97059
7268.89014 0.971413
7269.58984 0.972238
7270.29004 0.972731
7270.99023 0.972765
7271.68994 0.972799
7272.39014 0.972833
7273.08984 0.972868
7273.79004 0.972901
7274.49023 0.972934
7275.18994 0.972968
7275.89014 0.973001
7276.58984 0.973034
7277.29004 0.973068
7277.99023 0.973102
7278.68994 0.973137
7279.39014 0.973171
7280.08984 0.973066
7280.79004 0.972043
7281.49023 0.971012
7282.18994 0.969988
7282.89990 0.968958
7283.58984 0.967941
7284.29980 0.966911
7285.00000 0.965881
7285.70020 0.964864
7286.39990 0.963835
7287.10010 0.962805
7287.79980 0.961787
7288.50000 0.960763
7289.20996 0.959733
7289.91016 0.95871
7290.60986 0.958993
7291.31006 0.959475
7292.00977 0.959959
7292.72021 0.960445
7293.41016 0.960925
7294.12012 0.961411
7294.81982 0.961896
7295.52002 0.962376
7296.22021 0.962861
7296.93018 0.963343
7297.62988 0.963826
7298.33008 0.964312
7299.02979 0.964795
7299.72998 0.965279
7300.43994 0.966153
7301.14014 0.967251
7301.83984 0.968361
7302.54980 0.969471
7303.24023 0.970568
7303.95020 0.971679
7304.66016 0.97279
7305.35010 0.973888
7306.06006 0.974998
7306.75977 0.976102
7307.45996 0.977206
7308.16992 0.978316
7308.87012 0.97942
7309.56982 0.980526
7310.27979 0.981459
7310.97998 0.982115
7311.68994 0.982778
7312.39014 0.983441
7313.08984 0.984096
7313.79980 0.984759
7314.50000 0.985423
7315.20020 0.986079
7315.91016 0.986743
7316.60986 0.987402
7317.31982 0.988066
7318.02002 0.988727
7318.72998 0.989385
7319.43018 0.990044
7320.14014 0.990511
7320.83984 0.990153
7321.54004 0.989791
7322.25000 0.989428
7322.95020 0.989069
7323.66016 0.988706
7324.35986 0.988343
7325.06982 0.987983
7325.77002 0.987622
7326.47998 0.98726
7327.18018 0.986897
7327.89014 0.986535
7328.58984 0.986175
7329.29980 0.985814
7330.00000 0.985447
7330.70020 0.984591
7331.41016 0.983725
7332.12012 0.98286
7332.83008 0.981992
7333.52979 0.981134
7334.22998 0.980272
7334.93994 0.979406
7335.64990 0.978544
7336.35010 0.977683
7337.06006 0.976818
7337.77002 0.975954
7338.47998 0.975087
7339.18018 0.97423
7339.89014 0.973363
7340.60010 0.9742
7341.29980 0.975351
7342.00977 0.976518
7342.70996 0.97768
7343.41992 0.978833
7344.12012 0.979992
7344.83008 0.981155
7345.54004 0.982314
7346.25000 0.98348
7346.95020 0.984638
7347.66016 0.985795
7348.37012 0.98696
7349.06982 0.988111
7349.77979 0.989277
7350.49023 0.989683
7351.18994 0.989748
7351.89990 0.989812
7352.60986 0.989878
7353.31982 0.989945
7354.02979 0.990011
7354.72998 0.990075
7355.43994 0.99014
7356.14990 0.990207
7356.85986 0.990272
7357.56006 0.990337
7358.27002 0.990403
7358.97998 0.990467
7359.68994 0.990532
7360.39990 0.990301
7361.10010 0.989844
7361.81006 0.98938
7362.52002 0.98892
7363.22998 0.988461
7363.93994 0.987997
7364.64990 0.987535
7365.35010 0.987074
7366.06982 0.986613
7366.77002 0.986154
7367.47998 0.98569
7368.18994 0.985227
7368.89990 0.984769
7369.60986 0.984305
7370.31982 0.984574
7371.02979 0.985716
7371.74023 0.986873
7372.45020 0.988023
7373.16016 0.98918
7373.87012 0.990329
7374.58008 0.991479
7375.29004 0.992636
7376.00000 0.993785
7376.70020 0.994929
7377.41016 0.996086
7378.12988 0.997244
7378.83008 0.998388
7379.54980 0.999546
7380.25977 1.0
7380.97021 0.99922
7381.68018 0.99844
7382.39014 0.997659
7383.10010 0.996874
7383.81006 0.996094
7384.52002 0.995315
7385.22998 0.994532
7385.93994 0.993751
7386.64990 0.992974
7387.35986 0.992191
7388.06982 0.991406
7388.79004 0.990622
7389.49023 0.989847
7390.20020 0.989357
7390.91992 0.989587
7391.62988 0.989815
7392.33984 0.990045
7393.04980 0.990275
7393.75977 0.990502
7394.47998 0.990732
7395.18994 0.990962
7395.89990 0.991192
7396.60986 0.991421
7397.31982 0.991649
7398.02979 0.99188
7398.75000 0.992109
7399.45996 0.992337
7400.16992 0.992577
7400.87988 0.992853
7401.58984 0.993127
7402.31006 0.993403
7403.02002 0.993677
7403.72998 0.993952
7404.43994 0.994227
7405.14990 0.994499
7405.87012 0.994774
7406.58008 0.99505
7407.29004 0.995323
7408.00977 0.995596
7408.72021 0.995871
7409.43018 0.996143
7410.14990 0.996195
7410.85986 0.995389
7411.56982 0.994583
7412.29004 0.993771
7413.00000 0.992963
7413.70996 0.992157
7414.43018 0.991345
7415.14014 0.990541
7415.85010 0.98973
7416.56982 0.988918
7417.27979 0.988115
7417.99023 0.987301
7418.70996 0.986493
7419.41992 0.985685
7420.14014 0.984948
7420.85010 0.984537
7421.56006 0.984127
7422.27979 0.983713
7422.99023 0.983303
7423.70996 0.982892
7424.41992 0.982478
7425.12988 0.982068
7425.85010 0.981657
7426.56982 0.981243
7427.27979 0.980833
7427.99023 0.98042
7428.70996 0.980011
7429.43018 0.979599
7430.14014 0.979298
7430.85010 0.979457
7431.56982 0.979616
7432.27979 0.979775
7433.00000 0.979935
7433.70996 0.980092
7434.43018 0.980251
7435.14014 0.980408
7435.85986 0.980568
7436.58008 0.980728
7437.29980 0.980887
7438.00977 0.981044
7438.72021 0.981202
7439.43994 0.981361
7440.16016 0.98132
7440.87012 0.980564
7441.58984 0.979802
7442.31006 0.979045
7443.02002 0.978292
7443.72998 0.977531
7444.45020 0.97677
7445.16992 0.97601
7445.87988 0.975258
7446.60010 0.974496
7447.31982 0.973734
7448.02979 0.972983
7448.75000 0.972226
7449.47021 0.971466
7450.18994 0.970968
7450.91016 0.971206
7451.62012 0.97144
7452.33984 0.971675
7453.06006 0.971911
7453.77002 0.972145
7454.49023 0.972383
7455.20996 0.972621
7455.91992 0.972854
7456.64014 0.973091
7457.35986 0.973328
7458.08008 0.973563
7458.79980 0.9738
7459.50977 0.974034
7460.22998 0.974128
7460.95020 0.973922
7461.66016 0.973719
7462.37988 0.973512
7463.10010 0.973307
7463.81982 0.973104
7464.54004 0.972897
7465.25977 0.97269
7465.97021 0.972488
7466.68994 0.972282
7467.41016 0.972077
7468.12988 0.971872
7468.85010 0.971664
7469.56982 0.97146
7470.29004 0.971373
7471.00977 0.971461
7471.72021 0.971548
7472.43994 0.971637
7473.16992 0.971726
7473.87988 0.971812
7474.60010 0.971901
7475.31982 0.971989
7476.04004 0.972076
7476.75977 0.972165
7477.47998 0.972252
7478.20020 0.972339
7478.91992 0.972429
7479.64014 0.972516
7480.35986 0.97262
7481.08008 0.972741
7481.79980 0.972863
7482.52002 0.972984
7483.24023 0.973105
7483.95996 0.973226
7484.68018 0.973349
7485.39990 0.973471
7486.12012 0.973592
7486.83984 0.973711
7487.56006 0.973832
7488.27979 0.973954
7489.00000 0.974074
7489.72021 0.974196
7490.43994 0.974431
7491.16992 0.97474
7491.87988 0.975045
7492.60010 0.975354
7493.33008 0.975664
7494.04980 0.975973
7494.77002 0.976278
7495.49023 0.976584
7496.20996 0.976893
7496.93018 0.9772
7497.64990 0.977508
7498.37988 0.977817
7499.10010 0.978124
7499.81006 0.978429
7500.54004 0.978424
7501.25977 0.978309
7501.99023 0.978195
7502.70996 0.978084
7503.43018 0.977971
7504.16016 0.977857
7504.87012 0.977744
7505.58984 0.977632
7506.31982 0.977519
7507.04004 0.977405
7507.77002 0.977292
7508.49023 0.977178
7509.20996 0.977064
7509.93018 0.976951
7510.64990 0.977327
7511.37988 0.977759
7512.10010 0.978192
7512.81982 0.978618
7513.54980 0.979049
7514.27002 0.979477
7514.99023 0.979905
7515.72021 0.980336
7516.43994 0.980765
7517.16016 0.981194
7517.89014 0.981625
7518.60986 0.982053
7519.33008 0.98248
7520.06006 0.982947
7520.77979 0.983843
7521.50000 0.984747
7522.22998 0.98565
7522.95020 0.986541
7523.68018 0.987446
7524.39990 0.988345
7525.12012 0.989246
7525.85010 0.990151
7526.56982 0.991049
7527.29004 0.991947
7528.02002 0.992852
7528.74023 0.993748
7529.47021 0.994653
7530.20020 0.995253
7530.91016 0.995026
7531.64014 0.994799
7532.37012 0.994571
7533.08984 0.994345
7533.81982 0.994116
7534.54004 0.993888
7535.27002 0.993661
7535.99023 0.993434
7536.72021 0.993205
7537.45020 0.992976
7538.16992 0.992749
7538.89014 0.992524
7539.62012 0.992295
7540.35010 0.992304
7541.06982 0.992571
7541.79980 0.992842
7542.52002 0.993112
7543.25000 0.993381
7543.97021 0.99365
7544.70020 0.993917
7545.43018 0.994188
7546.14990 0.994459
7546.87988 0.994726
7547.60986 0.994996
7548.33008 0.995266
7549.04980 0.995534
7549.77979 0.995804
7550.50977 0.995578
7551.24023 0.995143
7551.95996 0.994713
7552.68994 0.99428
7553.41992 0.993845
7554.14014 0.993412
7554.87012 0.99298
7555.60010 0.992545
7556.33008 0.992113
7557.04980 0.991679
7557.77979 0.991244
7558.50977 0.990811
7559.24023 0.990376
7559.95996 0.989945
7560.68994 0.989963
7561.41992 0.990008
7562.14014 0.990052
7562.87012 0.990097
7563.60010 0.990141
7564.33008 0.990186
7565.06006 0.990232
7565.79004 0.990277
7566.50977 0.99032
7567.24023 0.990363
7567.97021 0.990408
7568.70020 0.990452
7569.43018 0.990496
7570.14990 0.99054
7570.87988 0.990586
7571.60986 0.990633
7572.33984 0.990678
7573.06982 0.990723
7573.79980 0.990768
7574.52002 0.990815
7575.25977 0.990862
7575.97998 0.990905
7576.70996 0.990951
7577.43994 0.990998
7578.16992 0.991043
7578.89990 0.991087
7579.62988 0.991133
7580.35986 0.990945
7581.08984 0.990514
7581.81982 0.990084
7582.54980 0.989653
7583.27979 0.989221
7584.00977 0.988792
7584.74023 0.988362
7585.47021 0.987929
7586.20020 0.987499
7586.93018 0.987072
7587.66016 0.986638
7588.39014 0.98621
7589.12012 0.985776
7589.85010 0.985345
7590.58008 0.984935
7591.31006 0.984523
7592.04004 0.984115
7592.77002 0.983705
7593.50000 0.983293
7594.22998 0.982884
7594.97021 0.982476
7595.70020 0.982066
7596.43018 0.981655
7597.14990 0.981246
7597.89014 0.980836
7598.60986 0.980428
7599.35010 0.980016
7600.08008 0.979649
7600.81982 0.979642
7601.54004 0.979634
7602.27002 0.979625
7603.00977 0.979616
7603.74023 0.979609
7604.47021 0.979599
7605.20020 0.979589
7605.93994 0.97958
7606.66016 0.979571
7607.39990 0.979562
7608.12988 0.979554
7608.87012 0.979544
7609.58984 0.979534
7610.33008 0.979677
7611.06006 0.980007
7611.79004 0.980333
7612.52002 0.980662
7613.25977 0.980993
7613.99023 0.981322
7614.72021 0.98165
7615.45996 0.98198
7616.18994 0.982307
7616.93018 0.982636
7617.64990 0.982962
7618.39014 0.983293
7619.12012 0.983622
7619.85010 0.983946
7620.58008 0.984074
7621.31982 0.984154
7622.04980 0.984232
7622.79004 0.984311
7623.52002 0.98439
7624.25000 0.984469
7624.99023 0.984546
7625.72021 0.984626
7626.45996 0.984704
7627.18994 0.984782
7627.91992 0.984859
7628.66016 0.984938
7629.39990 0.985015
7630.12012 0.985004
7630.85986 0.984565
7631.60010 0.984128
7632.33008 0.983692
7633.06982 0.983252
7633.79980 0.982816
7634.52979 0.982377
7635.27002 0.981937
7636.00000 0.981503
7636.74023 0.981063
7637.47998 0.980623
7638.20020 0.980187
7638.93994 0.979746
7639.68018 0.979307
7640.41016 0.978852
7641.14990 0.978376
7641.87988 0.977902
7642.62012 0.97743
7643.35986 0.976953
7644.08984 0.976478
7644.81982 0.976005
7645.56006 0.975528
7646.29004 0.975057
7647.02979 0.974582
7647.77002 0.974106
7648.50000 0.973634
7649.24023 0.973157
7649.97998 0.972683
7650.70996 0.972877
7651.45020 0.973094
7652.18994 0.973311
7652.93018 0.973526
7653.66016 0.97374
7654.39990 0.973956
7655.12988 0.974171
7655.87012 0.974385
7656.60010 0.974598
7657.33984 0.974815
7658.08008 0.975031
7658.81006 0.975243
7659.54980 0.975459
7660.29004 0.975816
7661.02979 0.976395
7661.77002 0.97697
7662.50000 0.977544
7663.24023 0.978122
7663.97998 0.978696
7664.70996 0.979267
7665.45020 0.979846
7666.18994 0.980424
7666.93018 0.981001
7667.66016 0.981571
7668.39990 0.982148
7669.14990 0.982725
7669.87988 0.983296
7670.62012 0.982632
7671.35986 0.981718
7672.08984 0.980809
7672.83008 0.979901
7673.56982 0.978987
7674.31006 0.978078
7675.04980 0.977165
7675.77979 0.976261
7676.52979 0.975348
7677.27002 0.974436
7678.00000 0.973534
7678.74023 0.972621
7679.47998 0.971713
7680.22021 0.970851
7680.95996 0.970092
7681.70020 0.969341
7682.43994 0.968588
7683.18018 0.967831
7683.91992 0.967079
7684.66016 0.966325
7685.39990 0.965568
7686.12988 0.96482
7686.87988 0.964063
7687.62012 0.963306
7688.35010 0.962559
7689.10010 0.961802
7689.83008 0.96105
7690.56982 0.960439
7691.31006 0.959865
7692.06006 0.959294
7692.79004 0.958725
7693.54004 0.95815
7694.27002 0.957582
7695.02002 0.957009
7695.75977 0.956434
7696.49023 0.955865
7697.24023 0.955291
7697.97998 0.954718
7698.72021 0.95415
7699.45996 0.953577
7700.20020 0.95299
7700.93994 0.952352
7701.68018 0.951711
7702.41992 0.951074
7703.16992 0.950432
7703.91016 0.949796
7704.64990 0.949162
7705.39014 0.948521
7706.12988 0.94788
7706.87012 0.947245
7707.60986 0.946604
7708.35986 0.945965
7709.10010 0.945331
7709.83984 0.94469
7710.58008 0.944012
7711.33008 0.943319
7712.06982 0.94263
7712.81006 0.941941
7713.54980 0.941246
7714.29004 0.940556
7715.02979 0.939873
7715.77979 0.93918
7716.52002 0.938488
7717.25977 0.937803
7718.00977 0.937109
7718.75000 0.936421
7719.49023 0.935729
7720.22998 0.935141
7720.97998 0.93477
7721.72021 0.934396
7722.45996 0.934025
7723.20996 0.933654
7723.95020 0.933281
7724.68994 0.932908
7725.43994 0.932534
7726.18018 0.932166
7726.93018 0.931792
7727.66992 0.93142
7728.41016 0.931051
7729.14990 0.930678
7729.89990 0.930306
7730.64014 0.929548
7731.37988 0.928729
7732.12988 0.927905
7732.87988 0.927085
7733.62012 0.926261
7734.35986 0.925447
7735.10986 0.924625
7735.85010 0.923801
7736.58984 0.922987
7737.33984 0.922164
7738.08984 0.92134
7738.83008 0.920527
7739.58008 0.919704
7740.31982 0.919225
7741.06006 0.919195
7741.81006 0.919164
7742.56006 0.919136
7743.29980 0.919106
7744.04980 0.919075
7744.79004 0.919045
7745.52979 0.919014
7746.27979 0.918984
7747.02002 0.918954
7747.77002 0.918924
7748.52002 0.918894
7749.25977 0.918863
7750.00977 0.918835
7750.75000 0.919029
7751.50000 0.919225
7752.25000 0.919422
7752.99023 0.919616
7753.74023 0.919811
7754.49023 0.920006
7755.22998 0.9202
7755.97998 0.920397
7756.72998 0.920592
7757.47021 0.920784
7758.22021 0.920979
7758.95996 0.921174
7759.70996 0.921368
7760.45996 0.921196
7761.20020 0.920794
7761.95020 0.92039
7762.70020 0.919987
7763.43994 0.919585
7764.18994 0.919183
7764.93994 0.918777
7765.68018 0.918379
7766.43018 0.917974
7767.18018 0.91757
7767.93018 0.917171
7768.68018 0.916767
7769.41992 0.916365
7770.16992 0.916134
7770.91992 0.916481
7771.66992 0.916828
7772.41992 0.917176
7773.16016 0.917522
7773.91016 0.917867
7774.66016 0.918215
7775.41016 0.918563
7776.14990 0.918907
7776.89990 0.919255
7777.64990 0.919604
7778.41016 0.919952
7779.14990 0.920296
7779.89990 0.920641
7780.64990 0.921236
7781.39990 0.921868
7782.14014 0.922499
7782.89990 0.923133
7783.64014 0.923763
7784.39990 0.924396
7785.14014 0.925023
7785.89014 0.925656
7786.64014 0.926291
7787.39014 0.926917
7788.14014 0.92755
7788.89014 0.928182
7789.64014 0.928811
7790.37988 0.929221
7791.14014 0.929423
7791.89014 0.929624
7792.64014 0.929826
7793.37988 0.930026
7794.14014 0.930229
7794.89014 0.93043
7795.62988 0.93063
7796.39014 0.930832
7797.14014 0.931034
7797.89014 0.931234
7798.64014 0.931436
7799.39014 0.931635
7800.14014 0.931891
7800.89014 0.932399
7801.64014 0.932903
7802.39014 0.933408
7803.14014 0.933915
7803.89014 0.934416
7804.64014 0.934925
7805.39990 0.935432
7806.14014 0.935931
7806.89990 0.936438
7807.64990 0.936945
7808.39990 0.937446
7809.14990 0.937952
7809.89990 0.938454
7810.64990 0.938516
7811.41016 0.938512
7812.16016 0.938507
7812.91016 0.938503
7813.66016 0.938498
7814.41016 0.938494
7815.16016 0.93849
7815.91992 0.938486
7816.66992 0.938479
7817.41992 0.938474
7818.18018 0.93847
7818.91992 0.938465
7819.68018 0.938458
7820.43018 0.938706
7821.18994 0.939145
7821.93994 0.939582
7822.68994 0.940019
7823.43994 0.940455
7824.20020 0.940893
7824.93994 0.94133
7825.70020 0.941766
7826.45996 0.942204
7827.20020 0.942637
7827.95996 0.943074
7828.70996 0.943508
7829.47021 0.943946
7830.22021 0.94418
7830.97021 0.943936
7831.72998 0.943689
7832.47998 0.943443
7833.22998 0.943198
7833.99023 0.942952
7834.74023 0.942702
7835.49023 0.942457
7836.25000 0.94221
7837.00977 0.941961
7837.77002 0.941714
7838.50977 0.94147
7839.27002 0.941224
7840.02002 0.941002
7840.77979 0.941624
7841.52979 0.942243
7842.29004 0.942866
7843.04004 0.943485
7843.79980 0.944108
7844.54980 0.944725
7845.31006 0.945349
7846.06006 0.945971
7846.81006 0.946586
7847.56982 0.947208
7848.33008 0.947828
7849.08008 0.948446
7849.83008 0.949063
7850.58984 0.947836
7851.35010 0.946103
7852.10986 0.944359
7852.85986 0.942627
7853.60986 0.940897
7854.37012 0.939157
7855.12012 0.937435
7855.87988 0.935697
7856.64014 0.933958
7857.39014 0.932239
7858.14990 0.930502
7858.91016 0.928775
7859.66016 0.92705
7860.41992 0.926509
7861.18018 0.926925
7861.93018 0.927339
7862.68994 0.927758
7863.43994 0.928169
7864.20020 0.928586
7864.95996 0.929003
7865.70996 0.929414
7866.47021 0.929831
7867.22998 0.930247
7867.97998 0.930658
7868.75000 0.931074
7869.50000 0.931487
7870.25977 0.931515
7871.02002 0.930792
7871.77002 0.930072
7872.52979 0.929352
7873.29004 0.928628
7874.04004 0.927913
7874.79980 0.92719
7875.56006 0.926467
7876.31982 0.925753
7877.08008 0.92503
7877.83984 0.924307
7878.58984 0.923593
7879.35010 0.92287
7880.10986 0.92221
7880.87012 0.921899
7881.62988 0.921587
7882.39014 0.921275
7883.14990 0.92096
7883.89990 0.92065
7884.66016 0.92034
7885.41992 0.920027
7886.18018 0.919714
7886.93994 0.919404
7887.70020 0.919091
7888.45020 0.918778
7889.22021 0.918465
7889.97998 0.918154
7890.72998 0.917751
7891.50000 0.917342
7892.25000 0.916937
7893.00977 0.916532
7893.77002 0.916124
7894.52979 0.915719
7895.29004 0.915317
7896.04980 0.914907
7896.81006 0.9145
7897.58008 0.914093
7898.33008 0.91369
7899.08984 0.913285
7899.85010 0.912877
7900.60986 0.912517
7901.37012 0.912169
7902.12988 0.911818
7902.89014 0.91147
7903.66016 0.911119
7904.41016 0.910772
7905.18018 0.910422
7905.93994 0.910073
7906.68994 0.909726
7907.45996 0.909376
7908.22021 0.909025
7908.97998 0.908679
7909.74023 0.90833
7910.50000 0.907911
7911.25977 0.90746
7912.02979 0.907004
7912.79004 0.906552
7913.54980 0.906101
7914.31006 0.905647
7915.06982 0.905199
7915.83008 0.904744
7916.60010 0.90429
7917.35010 0.903842
7918.12012 0.903389
7918.87988 0.902932
7919.64014 0.902483
7920.41016 0.902261
7921.16992 0.902245
7921.93018 0.902228
7922.68994 0.90221
7923.45020 0.902193
7924.22021 0.902176
7924.97998 0.902157
7925.74023 0.902138
7926.50000 0.90212
7927.27002 0.902101
7928.02979 0.902084
7928.79004 0.902064
7929.56006 0.902046
7930.31982 0.901824
7931.08008 0.901311
7931.85010 0.900802
7932.60986 0.900292
7933.37012 0.899779
7934.14014 0.89927
7934.89990 0.89876
7935.66016 0.898249
7936.41992 0.897741
7937.18994 0.897229
7937.95996 0.896717
7938.72021 0.896212
7939.47998 0.895698
7940.24023 0.895292
7941.00977 0.895105
7941.77002 0.894918
7942.54004 0.894729
7943.31006 0.894539
7944.06982 0.894354
7944.83008 0.894166
7945.60010 0.893976
7946.35986 0.893788
7947.12012 0.893602
7947.89014 0.893412
7948.66016 0.893221
7949.43018 0.893032
7950.18994 0.892666
7950.95020 0.891743
7951.72021 0.890813
7952.47998 0.889889
7953.25000 0.888967
7954.00977 0.888038
7954.77979 0.887114
7955.54004 0.886197
7956.31006 0.885271
7957.08008 0.884344
7957.85010 0.883417
7958.60010 0.8825
7959.37012 0.881573
7960.14014 0.880836
7960.89990 0.880921
7961.66992 0.881007
7962.43994 0.881093
7963.20020 0.881178
7963.97021 0.881263
7964.72998 0.881349
7965.50000 0.881435
7966.27002 0.881521
7967.02979 0.881606
7967.79980 0.881691
7968.56982 0.881775
7969.33008 0.881858
7970.10010 0.881856
7970.87012 0.881292
7971.64014 0.880726
7972.41016 0.880156
7973.16992 0.879591
7973.93994 0.879028
7974.70996 0.878459
7975.47021 0.877897
7976.24023 0.877329
7977.00977 0.876761
7977.77002 0.8762
7978.54004 0.875632
7979.31006 0.875063
7980.08008 0.874533
7980.85010 0.874272
7981.60986 0.874011
7982.37988 0.873751
7983.14990 0.87349
7983.91992 0.873229
7984.68994 0.872969
7985.45996 0.872706
7986.22021 0.872446
7986.99023 0.872182
7987.77002 0.871918
7988.52979 0.871658
7989.29980 0.871393
7990.06982 0.871104
7990.83984 0.870608
7991.60986 0.870104
7992.37988 0.869603
7993.14014 0.869102
7993.91992 0.868597
7994.68018 0.868095
7995.45020 0.867595
7996.22021 0.867092
7996.99023 0.866591
7997.75977 0.866087
7998.52979 0.865582
7999.29980 0.865083
8000.06982 0.864591
8000.83984 0.864235
8001.60986 0.863878
8002.37988 0.863521
8003.14990 0.863164
8003.91992 0.862803
8004.68994 0.862448
8005.45996 0.862094
8006.22998 0.861736
8007.00000 0.861377
8007.77002 0.861022
8008.54004 0.860663
8009.31982 0.860304
8010.08984 0.859864
8010.85010 0.858807
8011.62012 0.857744
8012.39990 0.856675
8013.16992 0.855613
8013.93994 0.854551
8014.70996 0.853483
8015.47998 0.852422
8016.25000 0.851362
8017.02979 0.850295
8017.79980 0.849234
8018.56982 0.848168
8019.33984 0.847113
8020.10986 0.846241
8020.87988 0.846518
8021.64990 0.846793
8022.43018 0.847067
8023.20020 0.847342
8023.97021 0.847618
8024.75000 0.847892
8025.52002 0.848166
8026.29004 0.848439
8027.06006 0.848714
8027.83008 0.848987
8028.60986 0.849261
8029.37988 0.849536
8030.14990 0.849692
8030.91992 0.849368
8031.70020 0.84904
8032.47021 0.848716
8033.24023 0.848391
8034.02002 0.848068
8034.79004 0.847742
8035.56006 0.847415
8036.33984 0.847092
8037.10986 0.846768
8037.89014 0.846441
8038.64990 0.846118
8039.43018 0.845792
8040.20996 0.845642
8040.97998 0.845976
8041.75000 0.846315
8042.52002 0.846653
8043.29980 0.846989
8044.06982 0.847326
8044.85010 0.847661
8045.62012 0.847998
8046.39990 0.848336
8047.16992 0.84867
8047.93994 0.849004
8048.72021 0.84934
8049.49023 0.849671
8050.27002 0.849865
8051.04004 0.849789
8051.81006 0.849711
8052.58984 0.849634
8053.37012 0.849557
8054.14014 0.849479
8054.91992 0.849402
8055.68994 0.849324
8056.47021 0.849245
8057.24023 0.849167
8058.02002 0.849089
8058.79004 0.849012
8059.56982 0.848932
8060.33984 0.848961
8061.12012 0.849126
8061.89990 0.849289
8062.66992 0.849451
8063.45020 0.849616
8064.22021 0.849778
8065.00000 0.849939
8065.77979 0.850101
8066.54980 0.850262
8067.33008 0.850424
8068.10986 0.850583
8068.87988 0.850743
8069.66016 0.850905
8070.43994 0.851053
8071.20996 0.851193
8071.99023 0.851334
8072.75977 0.851473
8073.54004 0.851614
8074.31982 0.851755
8075.10010 0.851895
8075.87988 0.852034
8076.64990 0.852173
8077.43018 0.852312
8078.20996 0.852452
8078.97998 0.852594
8079.77002 0.852733
8080.54004 0.853046
8081.31982 0.85344
8082.08984 0.853831
8082.87012 0.854224
8083.64990 0.854616
8084.43018 0.85501
8085.20020 0.855402
8085.99023 0.855794
8086.75977 0.856186
8087.54004 0.856576
8088.31982 0.856969
8089.10010 0.857361
8089.87988 0.857752
8090.66016 0.857745
8091.43018 0.857664
8092.20996 0.857583
8092.99023 0.857502
8093.77002 0.857421
8094.54980 0.857341
8095.33008 0.857259
8096.10010 0.857176
8096.89014 0.857096
8097.66016 0.857013
8098.43994 0.856931
8099.22998 0.856848
8100.00000 0.856767
8100.77979 0.857203
8101.56006 0.857638
8102.33984 0.858068
8103.12012 0.858505
8103.89990 0.858938
8104.68018 0.859371
8105.45996 0.859807
8106.24023 0.86024
8107.02002 0.860671
8107.79980 0.861107
8108.58008 0.86154
8109.35986 0.861975
8110.14014 0.862259
8110.91992 0.861889
8111.70020 0.86151
8112.47998 0.861135
8113.25977 0.86076
8114.04004 0.860384
8114.81982 0.860008
8115.60010 0.859635
8116.39014 0.859258
8117.16992 0.858882
8117.95020 0.858505
8118.72998 0.858131
8119.50977 0.857756
8120.29004 0.857579
8121.08008 0.857735
8121.85010 0.857891
8122.64014 0.858047
8123.41992 0.858202
8124.20020 0.858357
8124.97998 0.858511
8125.75977 0.858666
8126.54980 0.858821
8127.33008 0.858975
8128.10986 0.859129
8128.89990 0.859284
8129.68018 0.859436
8130.45996 0.859303
8131.24023 0.85897
8132.02002 0.858634
8132.81006 0.858298
8133.58984 0.857965
8134.37012 0.857631
8135.14990 0.857295
8135.93994 0.856958
8136.72021 0.856625
8137.50000 0.856289
8138.29004 0.855954
8139.06982 0.855621
8139.85010 0.855283
8140.64014 0.855037
8141.41992 0.854808
8142.20020 0.85458
8142.99023 0.854349
8143.77002 0.85412
8144.54980 0.853893
8145.33984 0.853664
8146.12012 0.853435
8146.89990 0.853206
8147.68994 0.852976
8148.47998 0.852748
8149.25977 0.852519
8150.04980 0.852283
8150.83008 0.851991
8151.60986 0.851695
8152.39990 0.851399
8153.18018 0.851107
8153.95996 0.850812
8154.75000 0.850516
8155.52979 0.850222
8156.31982 0.849925
8157.10010 0.849629
8157.89014 0.849334
8158.68018 0.849037
8159.45996 0.848743
8160.24023 0.848657
8161.02979 0.849037
8161.81006 0.849413
8162.60010 0.849792
8163.39014 0.85017
8164.16992 0.850544
8164.95996 0.850923
8165.74023 0.851296
8166.52979 0.851669
8167.31006 0.852045
8168.10010 0.852416
8168.89014 0.852789
8169.66992 0.853161
8170.45996 0.852995
8171.25000 0.852448
8172.02979 0.851901
8172.81006 0.85136
8173.60010 0.850812
8174.39014 0.850263
8175.18018 0.84972
8175.97021 0.849172
8176.75000 0.848625
8177.54004 0.84808
8178.33008 0.847531
8179.10986 0.846983
8179.89990 0.846434
8180.68994 0.846641
8181.47021 0.846953
8182.25977 0.847266
8183.04980 0.847581
8183.83008 0.847891
8184.62012 0.848206
8185.41016 0.84852
8186.20020 0.84883
8186.99023 0.849145
8187.77002 0.849456
8188.56006 0.84977
8189.35010 0.850082
8190.14014 0.850265
8190.93018 0.849841
8191.72021 0.849419
8192.50000 0.848998
8193.29980 0.848574
8194.08008 0.848153
8194.87012 0.847728
8195.66016 0.847309
8196.44043 0.846888
8197.24023 0.846464
8198.01953 0.846044
8198.80957 0.845622
8199.59961 0.845199
8200.38965 0.845223
8201.17969 0.845695
8201.96973 0.846172
8202.75977 0.846645
8203.54980 0.84712
8204.33984 0.84759
8205.12988 0.848066
8205.91992 0.848539
8206.70020 0.849009
8207.49023 0.849481
8208.29004 0.849955
8209.08008 0.850426
8209.87012 0.850898
8210.66016 0.850492
8211.45020 0.84991
8212.24023 0.849324
8213.03027 0.848739
8213.82031 0.848157
8214.61035 0.847571
8215.40039 0.846991
8216.19043 0.846406
8216.98047 0.84582
8217.76953 0.845241
8218.55957 0.844654
8219.34961 0.844071
8220.13965 0.843547
8220.94043 0.84329
8221.73047 0.843035
8222.51953 0.84278
8223.30957 0.842522
8224.09961 0.842266
8224.88965 0.842012
8225.69043 0.841754
8226.46973 0.841499
8227.26953 0.841242
8228.05957 0.840986
8228.84961 0.840727
8229.63965 0.84047
8230.42969 0.839855
8231.21973 0.838943
8232.01953 0.838029
8232.80957 0.837119
8233.59961 0.836202
8234.40039 0.835291
8235.19043 0.834381
8235.98047 0.833473
8236.76953 0.832555
8237.55957 0.83165
8238.36035 0.830736
8239.15039 0.829827
8239.94043 0.828916
8240.74023 0.827628
8241.53027 0.826315
8242.32031 0.824996
8243.12012 0.823686
8243.91016 0.822375
8244.70020 0.821056
8245.50000 0.819747
8246.28027 0.818444
8247.08008 0.817127
8247.87988 0.815812
8248.66992 0.814513
8249.45996 0.813197
8250.25977 0.812405
8251.04980 0.812692
8251.84961 0.812975
8252.63965 0.81326
8253.44043 0.813546
8254.23047 0.813829
8255.01953 0.814113
8255.82031 0.814397
8256.61035 0.814681
8257.41016 0.814966
8258.20020 0.815246
8259.00000 0.815529
8259.79004 0.815809
8260.58008 0.815565
8261.37988 0.815132
8262.17969 0.814694
8262.96973 0.814261
8263.75977 0.813828
8264.55957 0.813392
8265.36035 0.812958
8266.16016 0.812522
8266.95020 0.812089
8267.74023 0.811654
8268.54004 0.811218
8269.33008 0.810788
8270.12988 0.810294
8270.92969 0.80948
8271.71973 0.808672
8272.51953 0.807864
8273.30957 0.807051
8274.11035 0.806241
8274.91016 0.80543
8275.70020 0.804623
8276.50000 0.803814
8277.29980 0.803002
8278.08984 0.8022
8278.88965 0.801385
8279.69043 0.800575
8280.48047 0.79981
8281.28027 0.79906
8282.08008 0.798312
8282.87012 0.797566
8283.66992 0.796817
8284.46973 0.79607
8285.25977 0.795324
8286.05957 0.794575
8286.86035 0.79383
8287.66016 0.793083
8288.45996 0.792334
8289.25000 0.791593
8290.04980 0.790809
8290.84961 0.789523
8291.63965 0.788239
8292.44043 0.78695
8293.24023 0.785668
8294.04004 0.784386
8294.83984 0.783099
8295.63965 0.781818
8296.44043 0.780533
8297.24023 0.779254
8298.03027 0.777976
8298.83008 0.776698
8299.62988 0.775416
8300.41992 0.775081
8301.23047 0.775566
8302.01953 0.776048
8302.82031 0.776531
8303.62012 0.777017
8304.41992 0.777497
8305.21973 0.777979
8306.01953 0.77846
8306.82031 0.778939
8307.62012 0.779421
8308.41992 0.779902
8309.21973 0.780381
8310.01953 0.780818
8310.82031 0.779517
8311.61035 0.778226
8312.41992 0.776924
8313.21973 0.775631
8314.01953 0.774328
8314.82031 0.773033
8315.62012 0.771741
8316.41992 0.770441
8317.21973 0.769149
8318.01953 0.767853
8318.82031 0.766554
8319.62012 0.765264
8320.41992 0.764817
8321.21973 0.765125
8322.01953 0.765435
8322.83008 0.765745
8323.62012 0.766049
8324.41992 0.766357
8325.23047 0.766669
8326.03027 0.766974
8326.83008 0.767282
8327.62988 0.767591
8328.42969 0.767898
8329.24023 0.768206
8330.04004 0.768441
8330.83984 0.767178
8331.63965 0.765909
8332.44043 0.764655
8333.24023 0.763392
8334.04004 0.762125
8334.83984 0.760866
8335.65039 0.759606
8336.45020 0.758339
8337.25000 0.757081
8338.05957 0.755816
8338.86035 0.754557
8339.66016 0.7533
8340.46973 0.752978
8341.25977 0.753341
8342.07031 0.753709
8342.87012 0.754076
8343.66992 0.754439
8344.48047 0.754804
8345.28027 0.755167
8346.08008 0.75553
8346.88965 0.755896
8347.69043 0.756259
8348.49023 0.756622
8349.29980 0.756988
8350.09961 0.757255
8350.90039 0.756861
8351.70996 0.756462
8352.50977 0.756068
8353.30957 0.755669
8354.12012 0.755269
8354.91992 0.754873
8355.73047 0.754476
8356.53027 0.754079
8357.33008 0.753683
8358.13965 0.753285
8358.94043 0.752889
8359.75000 0.752489
8360.54980 0.751755
8361.36035 0.750866
8362.16016 0.749973
8362.96973 0.749086
8363.76953 0.748203
8364.58008 0.747309
8365.37988 0.746418
8366.17969 0.745536
8366.99023 0.744643
8367.79004 0.743757
8368.59961 0.742865
8369.41016 0.741977
8370.20996 0.741423
8371.01953 0.741806
8371.82031 0.742184
8372.62988 0.742562
8373.44043 0.742943
8374.24023 0.74332
8375.04004 0.743694
8375.84961 0.744073
8376.66016 0.744448
8377.46973 0.744825
8378.26953 0.7452
8379.08008 0.745572
8379.88965 0.745949
8380.69043 0.746094
8381.50000 0.746201
8382.30957 0.746309
8383.11035 0.746416
8383.91992 0.746526
8384.71973 0.746632
8385.53027 0.746739
8386.33984 0.746845
8387.13965 0.746951
8387.95020 0.747058
8388.75977 0.747165
8389.55957 0.74727
8390.37012 0.747353
8391.17969 0.747409
8391.99023 0.747463
8392.79980 0.747517
8393.59961 0.747571
8394.41016 0.747625
8395.21973 0.747678
8396.01953 0.74773
8396.83984 0.747783
8397.65039 0.747837
8398.45020 0.74789
8399.25977 0.747942
8400.07031 0.747978
8400.87988 0.747835
8401.69043 0.747688
8402.49023 0.747542
8403.29980 0.747396
8404.11035 0.747246
8404.91992 0.7471
8405.73047 0.746953
8406.54004 0.746805
8407.33984 0.746659
8408.16016 0.746511
8408.95996 0.746362
8409.76953 0.746213
8410.58008 0.746223
8411.38965 0.746296
8412.20020 0.746367
8413.00977 0.74644
8413.82031 0.746512
8414.62988 0.746584
8415.44043 0.746655
8416.25000 0.746726
8417.05957 0.746796
8417.87012 0.746867
8418.67969 0.746935
8419.49023 0.747004
8420.29980 0.746756
8421.11035 0.745968
8421.91992 0.745174
8422.73047 0.744383
8423.54004 0.743595
8424.34961 0.742803
8425.16016 0.742014
8425.98047 0.741222
8426.79004 0.740435
8427.58984 0.73965
8428.41016 0.738857
8429.21973 0.738065
8430.03027 0.737281
8430.83984 0.736398
8431.65039 0.735518
8432.46973 0.734633
8433.26953 0.733755
8434.08984 0.732878
8434.90039 0.731995
8435.70996 0.731119
8436.51953 0.730242
8437.33984 0.729361
8438.15039 0.728485
8438.95020 0.727617
8439.76953 0.726736
8440.58008 0.725789
8441.40039 0.724821
8442.20996 0.723854
8443.01953 0.722888
8443.83008 0.721916
8444.65039 0.720948
8445.45996 0.71998
8446.26953 0.719008
8447.08008 0.718043
8447.90039 0.717071
8448.70996 0.716107
8449.51953 0.715142
8450.33984 0.713982
8451.15039 0.712571
8451.95996 0.711152
8452.76953 0.709727
8453.58984 0.70831
8454.40039 0.706896
8455.21973 0.705472
8456.03027 0.704058
8456.84961 0.702638
8457.66016 0.701224
8458.46973 0.69981
8459.29004 0.69839
8460.09961 0.69703
8460.91016 0.695988
8461.73047 0.694946
8462.54004 0.693915
8463.34961 0.692881
8464.16992 0.691841
8464.98047 0.690807
8465.79980 0.689767
8466.61035 0.688734
8467.42969 0.687701
8468.25000 0.686662
8469.05957 0.68563
8469.87012 0.684599
8470.69043 0.683374
8471.50000 0.682131
8472.32031 0.680873
8473.12988 0.679621
8473.95020 0.678371
8474.76953 0.677117
8475.58008 0.675867
8476.40039 0.674618
8477.21973 0.673362
8478.03027 0.672115
8478.83984 0.670866
8479.66016 0.669613
8480.48047 0.668288
8481.29004 0.666907
8482.11035 0.665518
8482.91992 0.664142
8483.74023 0.662751
8484.55957 0.661367
8485.37012 0.659983
8486.19043 0.658592
8487.00977 0.657207
8487.82031 0.655823
8488.63965 0.65443
8489.45996 0.653046
8490.28027 0.651143
8491.08984 0.648264
8491.91016 0.64539
8492.73047 0.642519
8493.54980 0.639631
8494.36035 0.636784
8495.17969 0.633903
8496.00000 0.631038
8496.82031 0.628166
8497.62988 0.625309
8498.45020 0.622455
8499.26953 0.619587
8500.08984 0.616689
8500.90039 0.613372
8501.73047 0.610039
8502.54004 0.606728
8503.34961 0.603435
8504.16992 0.60011
8505.00000 0.596782
8505.82031 0.593461
8506.62988 0.590176
8507.45020 0.586873
8508.26953 0.583554
8509.08984 0.580257
8509.91016 0.576962
8510.73047 0.572031
8511.54980 0.566923
8512.37012 0.561787
8513.19043 0.556678
8514.00000 0.551578
8514.83008 0.546443
8515.63965 0.541372
8516.45996 0.536274
8517.28027 0.531153
8518.09961 0.526059
8518.91992 0.520967
8519.74023 0.515847
8520.55957 0.509781
8521.37988 0.503225
8522.20020 0.496704
8523.01953 0.490195
8523.83984 0.483652
8524.66016 0.477181
8525.48047 0.470638
8526.30957 0.464106
8527.12012 0.457648
8527.94043 0.451155
8528.75977 0.444628
8529.58008 0.438144
8530.41016 0.431081
8531.23047 0.423512
8532.04980 0.415943
8532.87012 0.408343
8533.69043 0.400798
8534.50977 0.393252
8535.33008 0.385678
8536.15039 0.378193
8536.98047 0.370625
8537.79980 0.363077
8538.61035 0.355607
8539.44043 0.348073
8540.25977 0.340518
8541.08008 0.332858
8541.91016 0.325155
8542.73047 0.317503
8543.54980 0.309846
8544.37012 0.302157
8545.19043 0.294509
8546.01953 0.286829
8546.83984 0.27919
8547.66016 0.2716
8548.48047 0.263924
8549.30957 0.256253
8550.12988 0.248816
8550.95020 0.242065
8551.76953 0.235359
8552.58984 0.228658
8553.41992 0.221914
8554.24023 0.215224
8555.07031 0.208499
8555.88965 0.20181
8556.70996 0.195126
8557.54004 0.188408
8558.36035 0.181742
8559.17969 0.175105
8560.00977 0.16842
8560.83008 0.163614
8561.66016 0.158784
8562.48047 0.153985
8563.29980 0.149189
8564.12988 0.144363
8564.95020 0.139574
8565.76953 0.134782
8566.59961 0.129971
8567.42969 0.125186
8568.24023 0.120433
8569.07031 0.115626
8569.90039 0.110822
8570.73047 0.107226
8571.54980 0.103838
8572.37012 0.100429
8573.20020 0.0970059
8574.01953 0.0936058
8574.84961 0.0902042
8575.66992 0.0867895
8576.50000 0.0833937
8577.32031 0.0800007
8578.15039 0.0765943
8578.98047 0.0732065
8579.80957 0.0698017
8580.62012 0.0675291
8581.45020 0.0655763
8582.28027 0.0636253
8583.09961 0.0616966
8583.92969 0.0597602
8584.75977 0.057812
8585.58008 0.055879
8586.41016 0.0539341
8587.24023 0.0520045
8588.05957 0.0500743
8588.88965 0.0481344
8589.71973 0.0462077
8590.54004 0.0447115
8591.37012 0.043434
8592.19043 0.0421725
8593.01953 0.0408956
8593.84961 0.0396287
8594.66992 0.0383628
8595.50000 0.0370889
8596.33008 0.0358234
8597.16016 0.0345606
8597.99023 0.0332897
8598.80957 0.0320274
8599.63965 0.0307661
8600.46973 0.0297648
8601.29980 0.028974
8602.12012 0.0281837
8602.95020 0.0273893
8603.76953 0.0266041
8604.61035 0.0258109
8605.42969 0.025023
8606.25977 0.0242348
8607.08984 0.0234425
8607.91992 0.0226562
8608.75000 0.0218698
8609.58008 0.0210792
8610.40039 0.0204334
8611.24023 0.0199309
8612.05957 0.0194318
8612.88965 0.0189353
8613.71973 0.0184339
8614.54980 0.0179329
8615.37012 0.0174375
8616.20996 0.0169372
8617.03027 0.0164395
8617.86035 0.0159422
8618.69043 0.015443
8619.51953 0.0149465
8620.34961 0.014513
8621.17969 0.01417
8622.00977 0.0138274
8622.83984 0.0134831
8623.66992 0.0131408
8624.50000 0.0128012
8625.33008 0.0124575
8626.16016 0.0121146
8626.99023 0.0117737
8627.82031 0.0114335
8628.65039 0.0110932
8629.48047 0.0107513
8630.30957 0.0104483
8631.13965 0.0102059
8631.98047 0.0099623
8632.80957 0.00972033
8633.63965 0.00947829
8634.46973 0.00923532
8635.29980 0.008994
8636.12988 0.0087512
8636.95996 0.00851145
8637.79004 0.0082708
8638.62012 0.00802866
8639.45020 0.00778815
8640.28027 0.00757043
8641.12012 0.0073954
8641.95020 0.00722152
8642.78027 0.00704774
8643.61035 0.00687307
8644.44043 0.00669933
8645.28027 0.00652488
8646.09961 0.00635241
8646.94043 0.00617821
8647.78027 0.00600394
8648.59961 0.00583181
8649.42969 0.00565899
8650.26953 0.00550065
8651.09961 0.00537606
8651.94043 0.00525082
8652.76953 0.00512643
8653.59961 0.00500198
8654.42969 0.00487703
8655.26953 0.00475292
8656.09961 0.00462877
8656.92969 0.00450414
8657.75977 0.00438091
8658.59961 0.00425631
8659.42969 0.00413255
8660.25977 0.00402052
8661.09961 0.00393346
8661.92969 0.00384676
8662.75977 0.00376023
8663.59961 0.00367327
8664.42969 0.00358688
8665.25977 0.00350044
8666.09961 0.00341368
8666.92969 0.00332738
8667.76953 0.00324125
8668.59961 0.00315458
8669.42969 0.00306898
8670.26953 0.00299862
8671.09961 0.00296243
8671.94043 0.00292626
8672.76953 0.00288992
8673.61035 0.00285382
8674.44043 0.00281776
8675.28027 0.00278147
8676.11035 0.00274547
8676.95020 0.00270929
8677.78027 0.00267332
9545.55859 0.0
