# %ECSV 0.9
# ---
# datatype:
# - {name: wavelength, unit: Angstrom, datatype: float32}
# - {name: response, datatype: float32}
# meta: !!omap
# - {band_name: F814W_81}
# - {group_name: ACS_WFC}
wavelength response
6105.70801 0.0
6784.12012 0.00202952
6784.77979 0.00206919
6785.43994 0.00210843
6786.10010 0.00214811
6786.75977 0.0021878
6787.41992 0.00222727
6788.08984 0.002267
6788.75000 0.00230672
6789.41016 0.00234624
6790.06982 0.002386
6790.72998 0.00242525
6791.39014 0.00246494
6792.06006 0.00250464
6792.72021 0.00254435
6793.37988 0.00258409
6794.04980 0.00262383
6794.70020 0.00266312
6795.37012 0.00270288
6796.02979 0.00274241
6796.68994 0.00278218
6797.35986 0.00282198
6798.02002 0.00286153
6798.68018 0.00290135
6799.35010 0.00294117
6800.00000 0.00298053
6800.66992 0.00302035
6801.33008 0.00306018
6802.00000 0.00310001
6802.66016 0.00313964
6803.31982 0.00317928
6803.97998 0.00321914
6804.64990 0.00325902
6805.31006 0.00329867
6805.97021 0.00333857
6806.64014 0.00337826
6807.29980 0.00341817
6807.97021 0.00345808
6808.62012 0.00349759
6809.29004 0.00353751
6809.95020 0.00357747
6810.62012 0.00361737
6811.27979 0.00365726
6811.93994 0.00369671
6812.60986 0.00373661
6813.27002 0.00377654
6813.93994 0.00381625
6814.60010 0.00385616
6815.27002 0.0038961
6815.93018 0.00393584
6816.60010 0.0039758
6817.25977 0.00401532
6817.91992 0.00405527
6818.58984 0.00409523
6819.25000 0.00413523
6819.91992 0.00417524
6820.58008 0.00421522
6821.25000 0.00425526
6821.91016 0.00429552
6822.58008 0.00433555
6823.24023 0.00437586
6823.91016 0.00441615
6824.56982 0.00445623
6825.24023 0.00449657
6825.91016 0.00453691
6826.56982 0.00457681
6827.22998 0.00461716
6827.89990 0.00465756
6828.56982 0.00469794
6829.22998 0.00473835
6829.89990 0.0047783
6830.56006 0.00481866
6831.22998 0.00485902
6831.89014 0.00489919
6832.56006 0.00493956
6833.22998 0.00497974
6833.89014 0.00502014
6834.56006 0.00506057
6835.22021 0.00510056
6835.89014 0.005141
6836.56006 0.00518146
6837.22998 0.00522192
6837.89014 0.00526239
6838.54980 0.00530241
6839.22021 0.00534292
6839.89014 0.00538344
6840.56006 0.00542346
6841.22021 0.00546366
6841.89014 0.00550386
6842.56006 0.00554385
6843.22998 0.00558406
6843.89014 0.00562385
6844.56006 0.00566407
6845.22998 0.00570431
6845.89014 0.00574456
6846.56006 0.0057848
6847.22021 0.00582461
6847.89014 0.00586487
6848.56006 0.00590516
6849.22998 0.00594521
6849.89990 0.00598549
6850.56982 0.00602605
6851.22998 0.00606642
6851.89990 0.00610704
6852.56006 0.00614722
6853.22998 0.00618788
6853.89990 0.00622852
6854.56982 0.00626919
6855.24023 0.00630987
6855.91016 0.00635055
6856.56982 0.00639078
6857.25000 0.00643151
6857.91016 0.00647198
6858.58008 0.00651272
6859.25000 0.00655344
6859.91992 0.006594
6860.58984 0.00663498
6861.25977 0.00667606
6861.91992 0.00671664
6862.58984 0.00675775
6863.25977 0.00679883
6863.93994 0.00683997
6864.60010 0.00688107
6865.27002 0.00692176
6865.93994 0.00696291
6866.60986 0.00700408
6867.27979 0.00704501
6867.95020 0.00708623
6868.62012 0.00712721
6869.29004 0.00716842
6869.95996 0.00720966
6870.62012 0.00725013
6871.29004 0.00729102
6871.97021 0.0073319
6872.64014 0.00737281
6873.31006 0.00741376
6873.97021 0.00745424
6874.64990 0.00749519
6875.31982 0.00753611
6875.97998 0.00757688
6876.66016 0.00761785
6877.33008 0.00765883
6878.00000 0.00769961
6878.66992 0.00774058
6879.33008 0.00778115
6880.00977 0.00782216
6880.68018 0.00792989
6881.35010 0.00822283
6882.02002 0.00851604
6882.68994 0.00880739
6883.35986 0.00909901
6884.02979 0.00939237
6884.70020 0.0096841
6885.37988 0.00997737
6886.04980 0.0102709
6886.72021 0.010563
6887.39014 0.0108566
6888.06006 0.0111505
6888.72998 0.0114411
6889.39990 0.0117349
6890.06982 0.0120359
6890.75000 0.0123925
6891.41992 0.0127492
6892.08984 0.013102
6892.75977 0.0134588
6893.43994 0.0138158
6894.10010 0.0141708
6894.77979 0.0145276
6895.45020 0.014883
6896.12012 0.0152402
6896.79980 0.0155974
6897.45996 0.0159508
6898.14014 0.0163081
6898.81006 0.0166657
6899.47998 0.0170231
6900.16016 0.0174292
6900.83008 0.017987
6901.50000 0.0185509
6902.16992 0.0191149
6902.85010 0.0196761
6903.52002 0.0202403
6904.18994 0.0208049
6904.85986 0.0213664
6905.54004 0.0219312
6906.20996 0.0224895
6906.87988 0.0230545
6907.56006 0.0236199
6908.22998 0.024185
6908.91016 0.0247506
6909.58008 0.0253159
6910.25000 0.0259275
6910.93018 0.0266336
6911.60010 0.0273358
6912.27002 0.0280423
6912.95020 0.0287497
6913.62012 0.0294531
6914.29980 0.0301604
6914.95996 0.0308602
6915.64014 0.0315684
6916.31006 0.0322769
6916.99023 0.0329862
6917.66992 0.0336951
6918.33984 0.0344007
6919.00977 0.0351065
6919.68994 0.0358161
6920.35986 0.036634
6921.04004 0.0375546
6921.70996 0.038476
6922.39014 0.0393915
6923.06006 0.040313
6923.74023 0.041234
6924.41016 0.0421451
6925.08008 0.043067
6925.75977 0.043989
6926.43994 0.0449111
6927.10986 0.0458332
6927.77979 0.0467454
6928.45996 0.0476685
6929.14014 0.048591
6929.81006 0.0495088
6930.49023 0.0506107
6931.16016 0.0517752
6931.83984 0.0529474
6932.52002 0.0541188
6933.18994 0.0552776
6933.85986 0.0564491
6934.54004 0.0576215
6935.22021 0.058794
6935.89990 0.0599666
6936.56982 0.0611257
6937.24023 0.0622991
6937.91992 0.0634718
6938.60010 0.0646387
6939.27002 0.0658124
6939.95020 0.0669854
6940.62988 0.0683435
6941.31006 0.0697252
6941.97998 0.0710904
6942.64990 0.0724718
6943.33008 0.0738544
6944.00977 0.0752373
6944.68994 0.0766196
6945.37012 0.0780031
6946.04004 0.079372
6946.72021 0.0807562
6947.39014 0.0821325
6948.06982 0.0835181
6948.75000 0.0849032
6949.43018 0.0862815
6950.10986 0.0877185
6950.77979 0.0894292
6951.45996 0.09112
6952.14014 0.0928317
6952.81006 0.0945422
6953.49023 0.0962539
6954.16992 0.0979545
6954.85010 0.0996564
6955.52979 0.101368
6956.20996 0.103079
6956.87988 0.104782
6957.56006 0.106494
6958.24023 0.108197
6958.91992 0.109908
6959.60010 0.111621
6960.27002 0.113353
6960.95020 0.115165
6961.62988 0.116977
6962.31006 0.118791
6962.99023 0.120603
6963.66016 0.122396
6964.35010 0.124209
6965.02002 0.126021
6965.70020 0.127825
6966.37988 0.129639
6967.06006 0.131453
6967.74023 0.133255
6968.41992 0.13507
6969.10010 0.136864
6969.77979 0.138679
6970.45996 0.140687
6971.14014 0.142789
6971.81982 0.144891
6972.49023 0.146969
6973.16992 0.149074
6973.85010 0.151177
6974.52979 0.153269
6975.22021 0.155374
6975.89990 0.15748
6976.56982 0.159574
6977.25977 0.16168
6977.93018 0.163764
6978.60986 0.16587
6979.29004 0.167978
6979.97998 0.170086
6980.66016 0.172475
6981.33984 0.174877
6982.02002 0.177252
6982.70020 0.179654
6983.37988 0.182045
6984.06006 0.18445
6984.74023 0.186856
6985.41992 0.189249
6986.10010 0.191656
6986.77979 0.194063
6987.45996 0.196444
6988.14014 0.198855
6988.83008 0.201264
6989.50977 0.203676
6990.18994 0.205534
6990.87012 0.205966
6991.54980 0.206403
6992.22998 0.20684
6992.91016 0.207274
6993.60010 0.207712
6994.27979 0.208147
6994.95996 0.208584
6995.64014 0.209021
6996.31982 0.209454
6997.00000 0.209892
6997.68994 0.210329
6998.37012 0.210767
6999.04980 0.211205
6999.72998 0.211638
7000.41016 0.213643
7001.10010 0.216667
7001.77979 0.219676
7002.45996 0.2227
7003.14990 0.225725
7003.83008 0.228734
7004.50977 0.23176
7005.18994 0.234751
7005.87012 0.237777
7006.56006 0.240803
7007.24023 0.243829
7007.93018 0.246857
7008.60986 0.249883
7009.29004 0.252876
7009.97998 0.255904
7010.66016 0.258315
7011.33984 0.260718
7012.02979 0.263121
7012.70996 0.265512
7013.39014 0.267914
7014.08008 0.270319
7014.75977 0.272696
7015.43994 0.275101
7016.12988 0.277506
7016.81006 0.279911
7017.50000 0.282317
7018.18018 0.284695
7018.85986 0.287102
7019.54980 0.28951
7020.22998 0.292191
7020.91992 0.295455
7021.60010 0.298701
7022.27979 0.301965
7022.97021 0.305229
7023.64990 0.30846
7024.33984 0.311728
7025.02002 0.314996
7025.70996 0.318264
7026.39990 0.321532
7027.06982 0.324764
7027.75977 0.328036
7028.45020 0.331306
7029.12988 0.33456
7029.81982 0.337832
7030.50977 0.340793
7031.18994 0.343625
7031.87988 0.346474
7032.56006 0.349291
7033.24023 0.352142
7033.93018 0.354994
7034.62012 0.357843
7035.29980 0.360696
7035.97998 0.363516
7036.66992 0.36637
7037.35986 0.369223
7038.04004 0.37206
7038.72998 0.374916
7039.41992 0.377771
7040.10010 0.380609
7040.79004 0.383447
7041.47021 0.386254
7042.16016 0.389093
7042.85010 0.391934
7043.54004 0.394773
7044.22021 0.397614
7044.91016 0.400455
7045.58984 0.403263
7046.27979 0.406104
7046.97021 0.408929
7047.64990 0.41177
7048.33984 0.414613
7049.02979 0.417439
7049.72021 0.42028
7050.41016 0.423002
7051.08984 0.425611
7051.77979 0.428252
7052.47021 0.430891
7053.14990 0.43353
7053.83984 0.43617
7054.52979 0.438782
7055.22021 0.441424
7055.89990 0.444065
7056.58984 0.446691
7057.27979 0.449333
7057.97021 0.451961
7058.64990 0.454603
7059.35010 0.457246
7060.02979 0.459873
7060.72021 0.462847
7061.41016 0.46582
7062.10010 0.468792
7062.79004 0.471767
7063.47021 0.474706
7064.16016 0.477681
7064.85010 0.480655
7065.54004 0.483613
7066.22998 0.486586
7066.91992 0.48956
7067.60010 0.492517
7068.29980 0.495492
7068.97998 0.498433
7069.66992 0.501405
7070.35986 0.50429
7071.04980 0.507092
7071.74023 0.509897
7072.43018 0.512684
7073.12012 0.515471
7073.81006 0.518276
7074.49023 0.521066
7075.18994 0.523872
7075.87988 0.526678
7076.56006 0.529468
7077.25977 0.532275
7077.95020 0.535084
7078.62988 0.537858
7079.31982 0.540667
7080.02002 0.54347
7080.70996 0.545994
7081.39990 0.548517
7082.08008 0.551013
7082.77979 0.553537
7083.47021 0.556063
7084.16016 0.558574
7084.85010 0.5611
7085.54004 0.563611
7086.22998 0.56614
7086.91992 0.568667
7087.60986 0.571165
7088.29980 0.573694
7088.99023 0.576222
7089.68994 0.578751
7090.37988 0.580864
7091.06006 0.58261
7091.75977 0.584376
7092.45020 0.586143
7093.14014 0.587898
7093.83008 0.589665
7094.52002 0.591429
7095.20996 0.593186
7095.91016 0.594952
7096.58984 0.596699
7097.29004 0.598464
7097.97998 0.600229
7098.66992 0.601996
7099.37012 0.603762
7100.06006 0.605591
7100.75000 0.608061
7101.43994 0.61056
7102.12988 0.613047
7102.81982 0.615546
7103.52002 0.618047
7104.20996 0.62053
7104.89990 0.62303
7105.58984 0.625502
7106.27979 0.628002
7106.97998 0.630501
7107.66992 0.633002
7108.37012 0.635502
7109.06006 0.637989
7109.75000 0.640475
7110.43994 0.642217
7111.14014 0.643525
7111.83008 0.644841
7112.52002 0.646156
7113.22021 0.647465
7113.91016 0.64878
7114.60986 0.650097
7115.29004 0.651399
7115.99023 0.652715
7116.68994 0.654033
7117.37988 0.65535
7118.08008 0.656667
7118.75977 0.65797
7119.45996 0.659286
7120.14990 0.660784
7120.85010 0.6629
7121.54004 0.665026
7122.22998 0.667143
7122.93018 0.669271
7123.62988 0.671401
7124.31006 0.673505
7125.00977 0.675634
7125.70996 0.677764
7126.39990 0.679894
7127.10010 0.682024
7127.79004 0.684133
7128.49023 0.686263
7129.18018 0.688395
7129.87988 0.690516
7130.56982 0.69185
7131.27002 0.69301
7131.95996 0.694165
7132.66016 0.695325
7133.35010 0.696472
7134.04980 0.697633
7134.74023 0.698793
7135.43994 0.699953
7136.14014 0.701113
7136.83008 0.702274
7137.52002 0.703423
7138.22021 0.704584
7138.91016 0.705738
7139.60986 0.706898
7140.31006 0.70857
7141.00000 0.710867
7141.70020 0.713177
7142.39990 0.715486
7143.08984 0.717772
7143.79004 0.720083
7144.49023 0.722394
7145.18994 0.724704
7145.87988 0.727016
7146.56982 0.7293
7147.27002 0.731611
7147.97021 0.733924
7148.66016 0.736223
7149.35986 0.738535
7150.06006 0.740676
7150.75977 0.741088
7151.45996 0.741499
7152.14990 0.741905
7152.85010 0.742315
7153.54004 0.742727
7154.24023 0.743138
7154.93994 0.743548
7155.62988 0.743954
7156.33008 0.744365
7157.02979 0.744777
7157.72998 0.745184
7158.43018 0.745594
7159.12988 0.746004
7159.81982 0.746413
7160.52002 0.747474
7161.20996 0.748742
7161.91016 0.750025
7162.60986 0.751307
7163.31006 0.752591
7164.00977 0.753874
7164.70996 0.755158
7165.41016 0.756428
7166.10986 0.757712
7166.79980 0.758988
7167.50000 0.760273
7168.20020 0.761557
7168.89990 0.762836
7169.60010 0.764121
7170.29004 0.765647
7170.99023 0.767543
7171.68994 0.769436
7172.39990 0.771332
7173.10010 0.773227
7173.79980 0.775124
7174.49023 0.776997
7175.18994 0.778893
7175.89014 0.780778
7176.58984 0.782674
7177.29004 0.784572
7177.99023 0.786457
7178.68994 0.788354
7179.39014 0.79025
7180.08984 0.792038
7180.79004 0.793218
7181.49023 0.794399
7182.18994 0.79558
7182.89014 0.79676
7183.58984 0.797927
7184.29004 0.799107
7184.99023 0.80029
7185.68994 0.801465
7186.39014 0.802647
7187.08984 0.803822
7187.79004 0.805004
7188.49023 0.806185
7189.18994 0.807355
7189.89014 0.808538
7190.58984 0.810509
7191.29980 0.812623
7192.00000 0.81474
7192.68994 0.81683
7193.39990 0.818945
7194.10010 0.821062
7194.79980 0.823166
7195.50000 0.825283
7196.20996 0.8274
7196.89990 0.829504
7197.60986 0.831622
7198.29980 0.833717
7199.00977 0.835833
7199.70996 0.837952
7200.41016 0.83929
7201.12012 0.840084
7201.81982 0.840877
7202.52002 0.841662
7203.22021 0.842455
7203.91992 0.843243
7204.62012 0.844037
7205.33008 0.844831
7206.02979 0.84562
7206.72998 0.846415
7207.43994 0.847209
7208.14014 0.847995
7208.83984 0.848789
7209.54004 0.849582
7210.25000 0.850439
7210.95020 0.851411
7211.64990 0.852371
7212.35010 0.853342
7213.06006 0.854314
7213.75977 0.855278
7214.47021 0.856249
7215.16992 0.857214
7215.87012 0.858185
7216.58008 0.859155
7217.27002 0.860114
7217.97998 0.861085
7218.68018 0.862056
7219.39014 0.863026
7220.10010 0.863966
7220.79004 0.86471
7221.50000 0.865461
7222.20020 0.866212
7222.91016 0.866958
7223.60986 0.867709
7224.31982 0.86846
7225.02002 0.869205
7225.72998 0.869956
7226.41992 0.870699
7227.12988 0.871449
7227.83984 0.872199
7228.54004 0.87295
7229.25000 0.873701
7229.95020 0.874443
7230.64990 0.875913
7231.35986 0.877442
7232.06006 0.878963
7232.77002 0.880492
7233.47998 0.882022
7234.18018 0.883541
7234.89014 0.885071
7235.58984 0.886585
7236.29004 0.888115
7237.00000 0.889644
7237.70996 0.891174
7238.41016 0.892704
7239.12012 0.894235
7239.81982 0.895748
7240.52979 0.896292
7241.22998 0.896502
7241.93994 0.896715
7242.64990 0.896928
7243.35010 0.897139
7244.06006 0.897351
7244.77002 0.897563
7245.47021 0.897773
7246.18018 0.897987
7246.87988 0.898199
7247.58984 0.898412
7248.29980 0.898624
7249.00000 0.898833
7249.70996 0.899046
7250.41992 0.900396
7251.12012 0.902527
7251.83008 0.90467
7252.52979 0.906801
7253.24023 0.908945
7253.95020 0.911088
7254.64990 0.913207
7255.35986 0.91535
7256.06982 0.917494
7256.77979 0.919636
7257.49023 0.921779
7258.18994 0.923897
7258.89990 0.926041
7259.60986 0.928184
7260.31006 0.929198
7261.02002 0.928826
7261.72998 0.928457
7262.43994 0.928089
7263.14990 0.927719
7263.85010 0.927354
7264.56006 0.926984
7265.27002 0.926614
7265.97998 0.926246
7266.68994 0.925873
7267.39990 0.925504
7268.10010 0.925137
7268.81006 0.924768
7269.52002 0.924399
7270.22998 0.924182
7270.93994 0.924288
7271.64990 0.924392
7272.35986 0.924498
7273.06982 0.924605
7273.77002 0.924708
7274.47998 0.924812
7275.18994 0.924917
7275.89990 0.925022
7276.60986 0.925127
7277.31982 0.925231
7278.02979 0.925336
7278.74023 0.925443
7279.45020 0.925548
7280.16016 0.9257
7280.87012 0.926016
7281.58008 0.926333
7282.29004 0.92665
7282.99023 0.926964
7283.70996 0.927282
7284.41992 0.927599
7285.12988 0.927916
7285.83984 0.928234
7286.54980 0.928548
7287.25977 0.928865
7287.97021 0.929183
7288.68018 0.929497
7289.39014 0.929815
7290.10010 0.930113
7290.81006 0.930288
7291.52002 0.930465
7292.22998 0.93064
7292.93994 0.930817
7293.64990 0.930995
7294.35986 0.931172
7295.08008 0.931348
7295.79004 0.931524
7296.50000 0.931699
7297.20996 0.931875
7297.91992 0.932051
7298.62988 0.932228
7299.35010 0.932405
7300.04980 0.932555
7300.77002 0.932386
7301.47021 0.932217
7302.18994 0.932046
7302.89990 0.931876
7303.60986 0.931706
7304.33008 0.931536
7305.04004 0.931365
7305.75000 0.931196
7306.45996 0.931026
7307.16992 0.930857
7307.89014 0.930686
7308.60010 0.930515
7309.31006 0.930345
7310.02002 0.930215
7310.74023 0.931226
7311.43994 0.932226
7312.16016 0.933237
7312.87012 0.934248
7313.58984 0.935258
7314.29980 0.93627
7315.00977 0.937271
7315.72998 0.938283
7316.43994 0.939294
7317.14990 0.9403
7317.85986 0.941312
7318.58008 0.942317
7319.29004 0.943328
7320.00977 0.944322
7320.70996 0.943609
7321.43018 0.942887
7322.14990 0.942164
7322.85986 0.941441
7323.58008 0.940718
7324.27979 0.940004
7325.00000 0.939281
7325.72021 0.938557
7326.43018 0.937838
7327.14014 0.937115
7327.85986 0.93639
7328.56982 0.935672
7329.29004 0.934948
7330.00000 0.934232
7330.70996 0.935586
7331.43018 0.936954
7332.14990 0.938323
7332.85986 0.939689
7333.58008 0.941055
7334.29004 0.942406
7335.00000 0.943774
7335.72021 0.945133
7336.43018 0.946501
7337.14990 0.94787
7337.85986 0.949228
7338.58008 0.950595
7339.29980 0.951962
7340.00977 0.953299
7340.72021 0.952953
7341.43994 0.952609
7342.16016 0.952265
7342.87988 0.951918
7343.58984 0.951578
7344.29980 0.951234
7345.02002 0.950887
7345.72998 0.950545
7346.45020 0.950201
7347.16992 0.949857
7347.87988 0.949511
7348.60010 0.949166
7349.31006 0.948825
7350.02979 0.948487
7350.75000 0.948253
7351.47021 0.948019
7352.18994 0.947785
7352.89990 0.947556
7353.60986 0.947323
7354.33008 0.947089
7355.04980 0.946857
7355.77002 0.946624
7356.47998 0.946391
7357.20020 0.946159
7357.91992 0.945926
7358.62988 0.945694
7359.35010 0.94546
7360.06982 0.945339
7360.79004 0.946292
7361.50977 0.947244
7362.22998 0.948196
7362.93994 0.949138
7363.66016 0.950091
7364.37012 0.951037
7365.08984 0.951988
7365.81006 0.952942
7366.52979 0.95389
7367.25000 0.954842
7367.95996 0.955784
7368.68018 0.956737
7369.39990 0.95769
7370.12012 0.958239
7370.83984 0.956771
7371.56006 0.955304
7372.27002 0.953853
7372.99023 0.952386
7373.70996 0.950925
7374.43018 0.949456
7375.14990 0.947988
7375.87012 0.946527
7376.58984 0.945058
7377.31006 0.943589
7378.02002 0.942136
7378.74023 0.940667
7379.45996 0.939197
7380.18994 0.93886
7380.91016 0.941802
7381.62012 0.944712
7382.33984 0.947652
7383.06006 0.950593
7383.77979 0.953517
7384.50000 0.956459
7385.22021 0.959384
7385.93994 0.962323
7386.66016 0.965261
7387.37988 0.968167
7388.10010 0.971105
7388.81982 0.974043
7389.54004 0.97698
7390.25977 0.978465
7390.97998 0.977441
7391.70020 0.976404
7392.41992 0.975368
7393.14014 0.974337
7393.85986 0.973299
7394.58984 0.972261
7395.31006 0.97123
7396.02979 0.970192
7396.74023 0.969165
7397.47021 0.968126
7398.18994 0.967088
7398.91016 0.966047
7399.62988 0.965008
7400.35986 0.964356
7401.06982 0.964104
7401.79980 0.963848
7402.52002 0.963594
7403.24023 0.96334
7403.95996 0.963085
7404.68018 0.96283
7405.39990 0.962575
7406.12988 0.96232
7406.83984 0.962069
7407.56982 0.961814
7408.29004 0.961558
7409.02002 0.961303
7409.74023 0.961048
7410.45996 0.960926
7411.18018 0.960877
7411.89990 0.960829
7412.62012 0.96078
7413.35010 0.960731
7414.06982 0.960683
7414.79004 0.960633
7415.52002 0.960585
7416.22998 0.960537
7416.95996 0.960488
7417.68018 0.960438
7418.41016 0.960389
7419.12988 0.96034
7419.85010 0.960292
7420.58008 0.960786
7421.29980 0.961421
7422.02002 0.962052
7422.75000 0.962687
7423.47021 0.963321
7424.18994 0.963952
7424.91992 0.964584
7425.64014 0.965212
7426.35986 0.965847
7427.08984 0.966479
7427.81006 0.967113
7428.54004 0.967748
7429.25977 0.968378
7429.97998 0.969008
7430.70996 0.969823
7431.43018 0.970638
7432.16016 0.971457
7432.89014 0.972278
7433.60986 0.973092
7434.33008 0.97391
7435.04980 0.97472
7435.77979 0.97554
7436.50977 0.97636
7437.22998 0.977178
7437.95996 0.977997
7438.68994 0.978815
7439.39990 0.979625
7440.12988 0.980215
7440.85010 0.97977
7441.58008 0.979323
7442.31006 0.978875
7443.02979 0.978429
7443.75977 0.977981
7444.49023 0.977533
7445.20996 0.977091
7445.93018 0.976645
7446.66016 0.976195
7447.39014 0.975747
7448.12012 0.9753
7448.83984 0.974858
7449.56006 0.974411
7450.29004 0.974921
7451.02002 0.976845
7451.74023 0.978778
7452.47021 0.980701
7453.20020 0.982636
7453.93018 0.984571
7454.64990 0.986484
7455.37012 0.988419
7456.10010 0.990353
7456.83008 0.992288
7457.56006 0.994221
7458.27979 0.996133
7459.00977 0.998068
7459.74023 1.0
7460.45996 0.998438
7461.18994 0.994886
7461.91992 0.991332
7462.64990 0.9878
7463.37988 0.98425
7464.10010 0.980738
7464.83008 0.977184
7465.56006 0.973633
7466.27979 0.970082
7467.02002 0.96653
7467.74023 0.962977
7468.47021 0.959466
7469.20020 0.955913
7469.91992 0.952381
7470.64990 0.952606
7471.37988 0.953284
7472.10986 0.953958
7472.83984 0.954636
7473.56982 0.955313
7474.29004 0.955982
7475.02002 0.95666
7475.75000 0.957337
7476.47998 0.958015
7477.20996 0.958692
7477.93994 0.95936
7478.66992 0.960039
7479.39990 0.960716
7480.12012 0.961634
7480.85010 0.963757
7481.58008 0.96587
7482.31006 0.967997
7483.04004 0.97012
7483.77002 0.972222
7484.50000 0.974348
7485.22998 0.976474
7485.95996 0.9786
7486.68994 0.980723
7487.41992 0.982825
7488.14990 0.984949
7488.87988 0.987074
7489.60986 0.989188
7490.33984 0.989569
7491.06982 0.987926
7491.79980 0.986292
7492.52979 0.98465
7493.25977 0.983025
7493.99023 0.981383
7494.72021 0.97974
7495.45020 0.978098
7496.18994 0.976455
7496.91992 0.974812
7497.64014 0.97319
7498.37012 0.971548
7499.10010 0.969915
7499.83984 0.968274
7500.56982 0.966546
7501.29980 0.964801
7502.02979 0.963048
7502.75977 0.961315
7503.49023 0.959563
7504.22021 0.957809
7504.95020 0.956055
7505.68994 0.954303
7506.41992 0.95255
7507.14990 0.950816
7507.87988 0.949063
7508.60986 0.947318
7509.33984 0.945563
7510.08008 0.944226
7510.81006 0.946342
7511.54004 0.948473
7512.27979 0.950606
7513.00000 0.952712
7513.74023 0.954843
7514.47021 0.956972
7515.20020 0.959101
7515.93994 0.961231
7516.66016 0.963337
7517.39990 0.965466
7518.12988 0.967595
7518.85986 0.96971
7519.60010 0.971838
7520.33008 0.97232
7521.06006 0.970811
7521.79980 0.969303
7522.52979 0.967809
7523.25977 0.966297
7524.00000 0.964788
7524.72998 0.963278
7525.47021 0.961768
7526.18994 0.960273
7526.93018 0.958759
7527.66992 0.957247
7528.39990 0.955743
7529.12988 0.954231
7529.87012 0.952717
7530.60010 0.952082
7531.33984 0.951634
7532.06006 0.951192
7532.79980 0.950745
7533.54004 0.950298
7534.27002 0.94985
7535.00977 0.949402
7535.75000 0.948957
7536.47021 0.948514
7537.20996 0.948065
7537.93994 0.947621
7538.68018 0.947175
7539.41992 0.946728
7540.14990 0.946321
7540.89014 0.946059
7541.62012 0.945797
7542.35010 0.945537
7543.08984 0.945275
7543.81982 0.945013
7544.56006 0.944749
7545.29980 0.944486
7546.02979 0.944229
7546.77002 0.943965
7547.50000 0.943701
7548.24023 0.94344
7548.97998 0.943178
7549.70996 0.942916
7550.45020 0.941832
7551.18018 0.940212
7551.91016 0.93861
7552.64990 0.93699
7553.39014 0.93537
7554.12988 0.93375
7554.87012 0.932131
7555.60010 0.93053
7556.33008 0.928909
7557.06982 0.927288
7557.81006 0.925677
7558.54980 0.924058
7559.27979 0.922437
7560.02002 0.920885
7560.75977 0.921602
7561.49023 0.922311
7562.22998 0.923028
7562.97021 0.923745
7563.70020 0.924462
7564.43994 0.925179
7565.18018 0.925896
7565.91016 0.926605
7566.64990 0.92732
7567.39014 0.928031
7568.12988 0.928747
7568.87012 0.929463
7569.60010 0.930175
7570.33984 0.931168
7571.06982 0.932468
7571.81006 0.933784
7572.56006 0.935098
7573.29980 0.936412
7574.02979 0.937725
7574.77002 0.939042
7575.50977 0.94034
7576.25000 0.941652
7576.97998 0.942958
7577.72021 0.944273
7578.45996 0.945585
7579.20020 0.94689
7579.93994 0.9482
7580.68018 0.947299
7581.41016 0.946217
7582.16016 0.945121
7582.89990 0.944025
7583.64014 0.942931
7584.37988 0.941837
7585.10986 0.940754
7585.85010 0.939658
7586.58984 0.938564
7587.33008 0.937476
7588.06982 0.93638
7588.81006 0.93529
7589.54980 0.934195
7590.29004 0.933168
7591.02979 0.932254
7591.77002 0.931331
7592.50977 0.930407
7593.25000 0.929482
7593.99023 0.928556
7594.72998 0.927646
7595.47021 0.926722
7596.20996 0.925796
7596.95020 0.924877
7597.68994 0.923954
7598.43994 0.923031
7599.16992 0.922112
7599.91992 0.921189
7600.64990 0.923172
7601.39014 0.925554
7602.14014 0.927936
7602.87988 0.930317
7603.62012 0.932701
7604.37012 0.935083
7605.10010 0.937436
7605.83984 0.939819
7606.58008 0.942188
7607.33008 0.944571
7608.06982 0.946954
7608.81006 0.949324
7609.54980 0.951706
7610.29980 0.951778
7611.02979 0.948392
7611.77002 0.944967
7612.52002 0.941545
7613.25977 0.938122
7614.00977 0.934698
7614.74023 0.931317
7615.49023 0.927895
7616.22998 0.924471
7616.97021 0.921071
7617.72021 0.917651
7618.45996 0.914251
7619.20020 0.910834
7619.93994 0.907414
7620.68018 0.910443
7621.43018 0.914035
7622.16992 0.917629
7622.91016 0.92122
7623.66016 0.924813
7624.39990 0.928363
7625.14014 0.931954
7625.89014 0.935546
7626.62988 0.939116
7627.37012 0.942708
7628.12012 0.946296
7628.85986 0.949865
7629.60010 0.953454
7630.33984 0.955534
7631.08984 0.955928
7631.83008 0.95632
7632.58008 0.956713
7633.33008 0.957106
7634.06982 0.957499
7634.81006 0.957885
7635.56006 0.958277
7636.29980 0.958668
7637.04004 0.95906
7637.79004 0.959452
7638.52979 0.959841
7639.27979 0.960232
7640.02002 0.96062
7640.75977 0.960974
7641.50977 0.961329
7642.25977 0.961683
7643.00000 0.962037
7643.75000 0.962389
7644.49023 0.962738
7645.24023 0.963092
7645.97998 0.963441
7646.72998 0.963795
7647.47021 0.964148
7648.22021 0.964498
7648.95996 0.964848
7649.70996 0.965202
7650.45020 0.966137
7651.20020 0.967462
7651.95020 0.96879
7652.68994 0.970115
7653.43994 0.971439
7654.18018 0.97275
7654.93018 0.974076
7655.68018 0.975399
7656.41992 0.976715
7657.16992 0.978041
7657.91016 0.979358
7658.66016 0.980681
7659.41016 0.982006
7660.14990 0.98289
7660.89990 0.982099
7661.64990 0.981306
7662.39990 0.980513
7663.14990 0.979721
7663.89014 0.978937
7664.62988 0.978145
7665.37988 0.977353
7666.12988 0.976567
7666.87988 0.975774
7667.62988 0.974982
7668.37012 0.974195
7669.12012 0.973403
7669.85986 0.97262
7670.60986 0.972173
7671.35986 0.971801
7672.10986 0.971429
7672.85986 0.971058
7673.60986 0.970685
7674.35010 0.970318
7675.10010 0.969946
7675.85010 0.969575
7676.60010 0.969204
7677.35010 0.968833
7678.08984 0.968463
7678.83984 0.968091
7679.60010 0.967719
7680.33984 0.967519
7681.08984 0.967521
7681.83984 0.967526
7682.58984 0.967528
7683.33984 0.967531
7684.08008 0.967535
7684.83008 0.967535
7685.58008 0.967538
7686.33008 0.967542
7687.08008 0.967544
7687.83008 0.967546
7688.58008 0.967549
7689.33008 0.967551
7690.06982 0.967364
7690.83008 0.965455
7691.58008 0.963544
7692.33008 0.961636
7693.08008 0.959729
7693.81982 0.95784
7694.58008 0.955931
7695.33008 0.954023
7696.08008 0.952125
7696.83008 0.950217
7697.58008 0.948309
7698.33008 0.946412
7699.08008 0.944506
7699.81982 0.942621
7700.58008 0.942781
7701.33008 0.94357
7702.08008 0.944359
7702.83008 0.945147
7703.58984 0.945937
7704.33008 0.946717
7705.08008 0.947505
7705.83008 0.948287
7706.58984 0.949075
7707.33984 0.949862
7708.08984 0.950646
7708.83984 0.951433
7709.58984 0.952212
7710.33984 0.951931
7711.08984 0.950353
7711.85010 0.948774
7712.60010 0.947195
7713.35010 0.945617
7714.10010 0.944055
7714.85010 0.942478
7715.60010 0.94091
7716.35986 0.939333
7717.10986 0.937757
7717.85986 0.936188
7718.60986 0.934612
7719.37012 0.933036
7720.10986 0.931845
7720.87012 0.932667
7721.62012 0.933488
7722.37988 0.934309
7723.12988 0.93513
7723.87988 0.935942
7724.64014 0.936761
7725.39014 0.937581
7726.14014 0.938396
7726.89990 0.939215
7727.64990 0.94003
7728.39990 0.940849
7729.16016 0.941667
7729.89990 0.942477
7730.66016 0.940771
7731.41016 0.938696
7732.16992 0.93662
7732.93018 0.934543
7733.66992 0.932491
7734.43018 0.930417
7735.18018 0.928343
7735.93994 0.92628
7736.68994 0.924205
7737.45020 0.922133
7738.20020 0.920071
7738.95996 0.917999
7739.70020 0.91595
7740.45996 0.915389
7741.22021 0.915802
7741.97021 0.916214
7742.72998 0.916629
7743.49023 0.917042
7744.22998 0.91745
7744.99023 0.917863
7745.74023 0.918274
7746.50000 0.918686
7747.25977 0.919099
7748.00977 0.91951
7748.77002 0.919924
7749.52002 0.920336
7750.27002 0.920768
7751.02979 0.921247
7751.79004 0.92173
7752.54980 0.92221
7753.29980 0.92269
7754.04980 0.923164
7754.81006 0.923644
7755.56982 0.924124
7756.31982 0.924602
7757.08008 0.925081
7757.83008 0.925556
7758.58984 0.926036
7759.35010 0.926516
7760.10010 0.926705
7760.85986 0.925029
7761.62012 0.923353
7762.37988 0.921678
7763.12988 0.920003
7763.87988 0.918349
7764.64014 0.916676
7765.39990 0.915004
7766.16016 0.913344
7766.91016 0.911675
7767.66992 0.910005
7768.43018 0.908346
7769.18994 0.90668
7769.93994 0.905031
7770.70020 0.904386
7771.45996 0.90383
7772.22021 0.903274
7772.97998 0.902717
7773.74023 0.902161
7774.49023 0.901611
7775.25000 0.901054
7776.00000 0.900501
7776.75977 0.899944
7777.52002 0.899388
7778.27979 0.898834
7779.04004 0.898277
7779.79004 0.897726
7780.54980 0.896887
7781.31006 0.89594
7782.06982 0.894994
7782.83008 0.894047
7783.58984 0.893098
7784.33984 0.89216
7785.10010 0.891213
7785.85986 0.89027
7786.62012 0.889324
7787.37988 0.888376
7788.14014 0.887434
7788.89990 0.886487
7789.66016 0.885539
7790.41016 0.885708
7791.18018 0.886794
7791.93994 0.887878
7792.70020 0.888963
7793.45996 0.890049
7794.20996 0.891121
7794.97998 0.892205
7795.74023 0.893289
7796.49023 0.894368
7797.25977 0.895452
7798.00977 0.896529
7798.77002 0.897613
7799.54004 0.898696
7800.29004 0.899312
7801.04980 0.899207
7801.81982 0.899102
7802.58008 0.898997
7803.33984 0.898892
7804.10010 0.898788
7804.85986 0.898684
7805.62012 0.898577
7806.37988 0.898472
7807.14014 0.898367
7807.89990 0.898262
7808.66016 0.898157
7809.43018 0.898051
7810.18018 0.897987
7810.93994 0.898054
7811.70996 0.898122
7812.47021 0.898189
7813.22998 0.898257
7814.00000 0.898323
7814.75000 0.898391
7815.52002 0.898458
7816.27979 0.898524
7817.04004 0.898589
7817.79980 0.898657
7818.56006 0.898723
7819.33008 0.898788
7820.08984 0.898887
7820.85010 0.899233
7821.60986 0.899582
7822.37988 0.899932
7823.14014 0.900281
7823.89990 0.900629
7824.66016 0.900976
7825.43018 0.901325
7826.18994 0.901672
7826.95020 0.902019
7827.72021 0.902366
7828.47998 0.902712
7829.24023 0.903059
7830.00977 0.903405
7830.75977 0.903605
7831.52979 0.903807
7832.29004 0.904009
7833.06006 0.904208
7833.81982 0.90441
7834.58008 0.904606
7835.35010 0.904806
7836.10986 0.905006
7836.87012 0.905203
7837.64014 0.905402
7838.41016 0.905602
7839.16992 0.9058
7839.93018 0.905998
7840.68994 0.906425
7841.45996 0.906879
7842.22021 0.907332
7842.99023 0.907785
7843.75977 0.908239
7844.52002 0.908693
7845.27979 0.909142
7846.04980 0.909595
7846.81006 0.910045
7847.58008 0.910498
7848.33984 0.910951
7849.10986 0.911401
7849.87012 0.911852
7850.62988 0.911807
7851.39990 0.911662
7852.16992 0.911515
7852.93018 0.91137
7853.70020 0.911225
7854.47021 0.911077
7855.22998 0.910932
7855.99023 0.910786
7856.75977 0.910639
7857.52979 0.910492
7858.29004 0.910345
7859.06006 0.910198
7859.83008 0.910051
7860.58984 0.911067
7861.35010 0.912409
7862.12012 0.913764
7862.89014 0.915122
7863.66016 0.916476
7864.43018 0.917831
7865.18994 0.919171
7865.95996 0.920525
7866.72021 0.921879
7867.49023 0.923225
7868.25977 0.924579
7869.02002 0.925924
7869.79004 0.927276
7870.56006 0.927071
7871.31982 0.926294
7872.08984 0.925507
7872.85986 0.92472
7873.62988 0.923934
7874.39990 0.923149
7875.16016 0.922371
7875.93018 0.921587
7876.70020 0.920801
7877.45996 0.920019
7878.22998 0.919234
7879.00000 0.918449
7879.77002 0.917668
7880.54004 0.917419
7881.29980 0.9174
7882.06982 0.917381
7882.83984 0.91736
7883.60986 0.917341
7884.37988 0.917321
7885.14990 0.917301
7885.91016 0.917282
7886.68018 0.917262
7887.45020 0.917241
7888.22021 0.917221
7888.99023 0.9172
7889.75977 0.91718
7890.52979 0.917349
7891.29980 0.917602
7892.06006 0.917852
7892.83984 0.918106
7893.60986 0.91836
7894.37988 0.918614
7895.14990 0.918868
7895.91016 0.919116
7896.68018 0.919369
7897.45020 0.919623
7898.22021 0.919874
7898.99023 0.920125
7899.75977 0.920376
7900.52979 0.920311
7901.31006 0.920103
7902.06982 0.919899
7902.83984 0.919691
7903.60986 0.919483
7904.39014 0.919276
7905.16016 0.919069
7905.91992 0.918866
7906.68994 0.918658
7907.47021 0.91845
7908.24023 0.918244
7909.00977 0.918037
7909.77979 0.917829
7910.54980 0.918175
7911.31982 0.918743
7912.08984 0.919304
7912.85986 0.91987
7913.62988 0.920438
7914.41016 0.921005
7915.18018 0.921571
7915.95020 0.922136
7916.72021 0.922695
7917.49023 0.923261
7918.25977 0.923822
7919.04004 0.924384
7919.81006 0.924948
7920.58008 0.924078
7921.35010 0.922732
7922.12012 0.921394
7922.89014 0.920055
7923.66992 0.91871
7924.43994 0.917365
7925.22021 0.91602
7925.99023 0.914674
7926.75977 0.913344
7927.52979 0.912
7928.29980 0.910664
7929.08008 0.909318
7929.85010 0.907976
7930.62012 0.907604
7931.39990 0.907462
7932.16992 0.907319
7932.93994 0.907178
7933.70996 0.907034
7934.49023 0.906891
7935.27002 0.906749
7936.04004 0.906606
7936.81006 0.906463
7937.58008 0.906321
7938.35986 0.906178
7939.12988 0.906036
7939.89990 0.905891
7940.68018 0.906526
7941.45020 0.907273
7942.22998 0.908019
7943.00000 0.908753
7943.77002 0.9095
7944.54980 0.910245
7945.31982 0.910988
7946.10010 0.911731
7946.87012 0.912467
7947.64990 0.913208
7948.41992 0.913949
7949.18994 0.914684
7949.97021 0.915425
7950.75000 0.912813
7951.52002 0.910087
7952.29980 0.90735
7953.06982 0.904645
7953.83984 0.90191
7954.62012 0.899174
7955.39990 0.896441
7956.18018 0.893709
7956.95020 0.890978
7957.72021 0.888281
7958.50000 0.885551
7959.27002 0.882838
7960.04980 0.880388
7960.83008 0.881837
7961.60010 0.883277
7962.37988 0.884725
7963.16016 0.886172
7963.93018 0.887601
7964.70996 0.889048
7965.47998 0.890494
7966.25977 0.891939
7967.04004 0.893383
7967.81006 0.894811
7968.58984 0.896252
7969.37012 0.897693
7970.14014 0.898743
7970.91992 0.898105
7971.70020 0.897469
7972.47998 0.896828
7973.25977 0.896189
7974.02002 0.895559
7974.81006 0.894919
7975.58008 0.894279
7976.35986 0.89364
7977.14014 0.893003
7977.91016 0.892371
7978.68994 0.891731
7979.47021 0.891092
7980.25000 0.891087
7981.02979 0.892427
7981.81006 0.893767
7982.58008 0.8951
7983.35986 0.896441
7984.14014 0.897768
7984.91992 0.89911
7985.70020 0.900451
7986.47998 0.901792
7987.25977 0.903133
7988.04004 0.904477
7988.81006 0.905805
7989.58984 0.907145
7990.37012 0.907142
7991.14990 0.905631
7991.93018 0.90412
7992.70020 0.902616
7993.47998 0.901103
7994.25977 0.899608
7995.04004 0.898095
7995.81982 0.896586
7996.60010 0.895072
7997.37988 0.893558
7998.16016 0.892047
7998.93994 0.890552
7999.72021 0.889039
8000.50000 0.888582
8001.27979 0.888718
8002.06006 0.888853
8002.83984 0.888989
8003.62012 0.889122
8004.39990 0.889256
8005.18018 0.88939
8005.95996 0.889525
8006.74023 0.889659
8007.52002 0.889791
8008.31006 0.889923
8009.08008 0.890055
8009.85986 0.890188
8010.64990 0.889761
8011.41992 0.889215
8012.20996 0.888667
8012.97998 0.888122
8013.77002 0.887574
8014.54980 0.887026
8015.31982 0.886485
8016.10986 0.885938
8016.89014 0.885391
8017.68018 0.884843
8018.45996 0.884295
8019.22998 0.883754
8020.02002 0.883192
8020.79980 0.882078
8021.58008 0.880969
8022.35986 0.879854
8023.14990 0.878737
8023.93018 0.877629
8024.70996 0.876513
8025.49023 0.87541
8026.27002 0.874294
8027.06006 0.87318
8027.83984 0.872065
8028.62012 0.87095
8029.41016 0.869835
8030.18994 0.869394
8030.97021 0.871082
8031.75000 0.872758
8032.52979 0.874446
8033.31982 0.876132
8034.10010 0.877809
8034.89014 0.879493
8035.66992 0.881177
8036.45020 0.882842
8037.22998 0.884526
8038.02002 0.886206
8038.79980 0.887888
8039.58984 0.889568
8040.37012 0.88985
8041.14990 0.888572
8041.93994 0.887296
8042.72021 0.886027
8043.50977 0.884751
8044.29004 0.883481
8045.06982 0.882205
8045.85986 0.880931
8046.64014 0.87967
8047.41992 0.878394
8048.20996 0.877119
8049.00000 0.875843
8049.77979 0.874569
8050.56006 0.874775
8051.35010 0.875559
8052.12988 0.876342
8052.91992 0.877123
8053.70020 0.877906
8054.49023 0.87869
8055.27002 0.87947
8056.06006 0.880254
8056.83984 0.881027
8057.62012 0.88181
8058.41016 0.882595
8059.20020 0.883378
8059.99023 0.884161
8060.77979 0.882949
8061.56006 0.881722
8062.33984 0.880481
8063.12988 0.879247
8063.91016 0.878011
8064.70020 0.87677
8065.47998 0.875539
8066.27002 0.874301
8067.04980 0.873079
8067.83984 0.871843
8068.62988 0.870607
8069.41992 0.869373
8070.20996 0.868479
8071.00000 0.868538
8071.77002 0.868599
8072.56006 0.868659
8073.35010 0.868719
8074.14014 0.86878
8074.93018 0.86884
8075.70996 0.868898
8076.50000 0.868958
8077.29004 0.869017
8078.06982 0.869075
8078.85986 0.869137
8079.64990 0.869196
8080.43994 0.869587
8081.22998 0.870245
8082.00977 0.870894
8082.79980 0.871552
8083.58984 0.87221
8084.37988 0.872863
8085.16016 0.87352
8085.95020 0.874171
8086.74023 0.874828
8087.52979 0.875484
8088.31982 0.876135
8089.10986 0.876792
8089.89014 0.877444
8090.68018 0.876203
8091.47021 0.874666
8092.25977 0.873148
8093.04980 0.871613
8093.83984 0.87008
8094.62012 0.868557
8095.41016 0.867024
8096.20996 0.865491
8096.99023 0.86397
8097.77979 0.86244
8098.56982 0.860918
8099.35986 0.859399
8100.14990 0.858387
8100.93994 0.859593
8101.72998 0.860796
8102.52002 0.861994
8103.31006 0.863193
8104.10010 0.864398
8104.89014 0.865595
8105.68018 0.8668
8106.47021 0.868004
8107.25977 0.8692
8108.04980 0.870405
8108.83984 0.87161
8109.62988 0.872807
8110.41992 0.873433
8111.20996 0.873557
8112.00000 0.873678
8112.79980 0.8738
8113.58008 0.873922
8114.37012 0.874044
8115.16992 0.874166
8115.95996 0.874289
8116.75000 0.874409
8117.54004 0.87453
8118.33008 0.874652
8119.12012 0.874773
8119.91016 0.874894
8120.70020 0.875657
8121.50000 0.876506
8122.29004 0.877355
8123.08008 0.878202
8123.87012 0.87904
8124.66016 0.879885
8125.45996 0.880732
8126.25000 0.881573
8127.04004 0.882416
8127.83008 0.883263
8128.62012 0.884102
8129.41992 0.884944
8130.20996 0.885022
8131.00000 0.882967
8131.79004 0.880925
8132.58984 0.878869
8133.37988 0.876816
8134.18018 0.874761
8134.95996 0.872732
8135.75977 0.870678
8136.54980 0.868639
8137.33984 0.866588
8138.14014 0.864536
8138.93018 0.862499
8139.72998 0.86045
8140.52002 0.858934
8141.31006 0.857706
8142.10010 0.856479
8142.89990 0.855244
8143.68994 0.854011
8144.47998 0.852785
8145.27979 0.851558
8146.06982 0.850328
8146.85986 0.849103
8147.66016 0.847872
8148.45996 0.846642
8149.25000 0.845418
8150.04980 0.844346
8150.83984 0.845973
8151.62988 0.847588
8152.43018 0.849204
8153.22021 0.85083
8154.02002 0.852453
8154.81006 0.854078
8155.60010 0.855684
8156.39990 0.857307
8157.20020 0.85893
8157.99023 0.860543
8158.79004 0.862166
8159.58008 0.863781
8160.37988 0.864155
8161.18018 0.863143
8161.97021 0.862138
8162.77002 0.861129
8163.56006 0.860124
8164.35986 0.859116
8165.14990 0.858108
8165.93994 0.85711
8166.74023 0.856104
8167.54004 0.855097
8168.33008 0.854096
8169.12988 0.853092
8169.93018 0.852085
8170.72021 0.851126
8171.52002 0.850164
8172.31982 0.849208
8173.10986 0.848247
8173.91016 0.847292
8174.70996 0.846329
8175.50977 0.845368
8176.31006 0.844406
8177.10010 0.843454
8177.89990 0.842493
8178.68994 0.841535
8179.49023 0.840572
8180.29004 0.840192
8181.08008 0.840842
8181.87988 0.841492
8182.68018 0.842146
8183.47998 0.842794
8184.27979 0.843446
8185.06982 0.844095
8185.87012 0.844746
8186.66992 0.845395
8187.45996 0.846043
8188.25977 0.846694
8189.06006 0.847345
8189.85986 0.847992
8190.66016 0.847348
8191.45996 0.846431
8192.25977 0.84551
8193.05957 0.84459
8193.84961 0.843676
8194.65039 0.84276
8195.45020 0.84184
8196.25000 0.84092
8197.04980 0.840001
8197.83984 0.839094
8198.65039 0.838176
8199.45020 0.837257
8200.24023 0.836973
8201.04004 0.838129
8201.84961 0.839286
8202.63965 0.840435
8203.44043 0.84159
8204.24023 0.842737
8205.04004 0.843893
8205.83984 0.845038
8206.63965 0.846193
8207.44043 0.847345
8208.24023 0.84849
8209.04004 0.849636
8209.83984 0.850786
8210.63965 0.850162
8211.44043 0.849095
8212.24023 0.848026
8213.04004 0.846962
8213.83984 0.845895
8214.63965 0.844833
8215.44043 0.843764
8216.24023 0.842701
8217.04980 0.841634
8217.84961 0.840566
8218.65039 0.839496
8219.45020 0.83844
8220.25000 0.837424
8221.04980 0.836524
8221.84961 0.835622
8222.66016 0.834719
8223.45020 0.833821
8224.25977 0.832919
8225.05957 0.83202
8225.86035 0.831124
8226.66992 0.830225
8227.46973 0.829331
8228.26953 0.828433
8229.07031 0.827537
8229.87012 0.826645
8230.66992 0.826803
8231.48047 0.827169
8232.28027 0.827533
8233.08008 0.8279
8233.87988 0.828261
8234.69043 0.828626
8235.49023 0.828992
8236.29004 0.829355
8237.08984 0.829715
8237.90039 0.830082
8238.70020 0.830446
8239.50977 0.83081
8240.29980 0.830994
8241.11035 0.830891
8241.91016 0.830786
8242.70996 0.830683
8243.51953 0.830579
8244.33008 0.830474
8245.12988 0.830369
8245.92969 0.830266
8246.73047 0.83016
8247.54004 0.830056
8248.33984 0.829952
8249.15039 0.829847
8249.95020 0.829742
8250.75000 0.829852
8251.55957 0.829973
8252.36035 0.830097
8253.16016 0.83022
8253.96973 0.830342
8254.78027 0.830465
8255.58008 0.830587
8256.38965 0.83071
8257.19043 0.830832
8258.00000 0.830953
8258.79980 0.831073
8259.59961 0.831193
8260.41016 0.830778
8261.21973 0.82985
8262.01953 0.828931
8262.83008 0.828003
8263.62988 0.827076
8264.44043 0.826154
8265.24023 0.825226
8266.04980 0.824303
8266.84961 0.823376
8267.66016 0.822449
8268.46973 0.821528
8269.26953 0.820603
8270.08008 0.819853
8270.88965 0.82072
8271.69043 0.821589
8272.49023 0.822448
8273.29980 0.823315
8274.11035 0.82418
8274.91016 0.825045
8275.71973 0.825911
8276.53027 0.826775
8277.33008 0.827635
8278.15039 0.828502
8278.95020 0.829358
8279.75000 0.830219
8280.55957 0.83011
8281.37012 0.829573
8282.17969 0.829034
8282.99023 0.828501
8283.79004 0.827967
8284.59961 0.827429
8285.41016 0.826894
8286.21973 0.826358
8287.01953 0.825821
8287.83008 0.825287
8288.63965 0.82475
8289.44043 0.824216
8290.25000 0.823574
8291.05957 0.822707
8291.87012 0.821838
8292.67969 0.820969
8293.49023 0.820101
8294.29004 0.819243
8295.09961 0.818376
8295.91016 0.817511
8296.71973 0.816646
8297.53027 0.815779
8298.33984 0.814916
8299.15039 0.81405
8299.95996 0.813186
8300.76953 0.812322
8301.57031 0.81146
8302.37988 0.810593
8303.19043 0.809727
8304.00977 0.808861
8304.80957 0.808003
8305.62012 0.807137
8306.42969 0.806272
8307.24023 0.80541
8308.04980 0.804546
8308.86035 0.803687
8309.66992 0.802821
8310.48047 0.802649
8311.29004 0.802947
8312.09961 0.803245
8312.91016 0.803546
8313.71973 0.803844
8314.53027 0.804142
8315.33984 0.804437
8316.15039 0.804736
8316.95996 0.805035
8317.76953 0.805327
8318.58008 0.805624
8319.40039 0.805921
8320.20996 0.806126
8321.01953 0.806068
8321.83008 0.806009
8322.63965 0.80595
8323.45020 0.805889
8324.25977 0.805829
8325.08008 0.805772
8325.88965 0.805711
8326.69043 0.805652
8327.50977 0.805592
8328.32031 0.805532
8329.12988 0.805472
8329.94043 0.80541
8330.75000 0.804876
8331.57031 0.804303
8332.37988 0.80373
8333.19043 0.80316
8334.00000 0.80259
8334.82031 0.802019
8335.62988 0.801446
8336.44043 0.800873
8337.25000 0.800307
8338.07031 0.799735
8338.87988 0.799163
8339.69043 0.798593
8340.50977 0.798373
8341.32031 0.798369
8342.12988 0.798365
8342.95020 0.79836
8343.75977 0.798355
8344.57031 0.79835
8345.37988 0.798343
8346.20020 0.798336
8347.00977 0.798332
8347.82031 0.798325
8348.63965 0.798319
8349.45020 0.798313
8350.25977 0.798243
8351.08008 0.798041
8351.90039 0.797836
8352.70996 0.797633
8353.51953 0.797429
8354.33984 0.797224
8355.15039 0.797019
8355.96973 0.796816
8356.78027 0.796611
8357.59961 0.796407
8358.41992 0.796203
8359.21973 0.796001
8360.04004 0.795788
8360.84961 0.795448
8361.66992 0.795104
8362.49023 0.794762
8363.29980 0.794422
8364.11035 0.794078
8364.92969 0.793734
8365.75000 0.793393
8366.55957 0.793049
8367.37988 0.792708
8368.19043 0.792365
8369.00977 0.792023
8369.82031 0.79168
8370.63965 0.791597
8371.45020 0.791585
8372.26953 0.791572
8373.08984 0.79156
8373.90039 0.791548
8374.71973 0.791534
8375.54004 0.791521
8376.34961 0.791507
8377.16992 0.791493
8377.99023 0.791479
8378.79980 0.791463
8379.62012 0.791448
8380.42969 0.790917
8381.25000 0.78992
8382.07031 0.788924
8382.88965 0.787935
8383.70020 0.786941
8384.51953 0.785952
8385.33984 0.784956
8386.16016 0.783961
8386.96973 0.78297
8387.79004 0.781977
8388.61035 0.780988
8389.42969 0.779993
8390.25000 0.779657
8391.05957 0.780844
8391.87988 0.782042
8392.70020 0.78324
8393.50977 0.784432
8394.33008 0.78563
8395.15039 0.786827
8395.96973 0.788017
8396.79004 0.789216
8397.59961 0.790406
8398.42969 0.791603
8399.24023 0.792794
8400.05957 0.793795
8400.87988 0.792455
8401.70020 0.791111
8402.51953 0.789785
8403.33984 0.788443
8404.15039 0.78711
8404.98047 0.785771
8405.79980 0.784434
8406.61035 0.783103
8407.44043 0.781769
8408.25977 0.780435
8409.07031 0.779107
8409.90039 0.777774
8410.70996 0.777817
8411.53027 0.77806
8412.34961 0.778302
8413.16992 0.778544
8413.99023 0.778787
8414.80957 0.779029
8415.62988 0.77927
8416.45020 0.779511
8417.26953 0.77975
8418.08984 0.77999
8418.91992 0.780229
8419.74023 0.780466
8420.54980 0.780642
8421.37988 0.780789
8422.20020 0.780934
8423.01953 0.781077
8423.83984 0.781223
8424.66016 0.781367
8425.48047 0.781511
8426.29980 0.781655
8427.12012 0.781799
8427.95020 0.781942
8428.76953 0.782082
8429.58984 0.782226
8430.41016 0.782082
8431.23047 0.781649
8432.04980 0.781215
8432.87988 0.78078
8433.70020 0.780346
8434.51953 0.779915
8435.33984 0.779483
8436.16992 0.779049
8436.99023 0.778617
8437.80957 0.778182
8438.62988 0.77775
8439.45020 0.777317
8440.28027 0.777016
8441.09961 0.776977
8441.91992 0.776939
8442.74023 0.776901
8443.57031 0.776862
8444.40039 0.776821
8445.21973 0.77678
8446.03027 0.77674
8446.86035 0.776701
8447.67969 0.776659
8448.50977 0.776618
8449.33008 0.776579
8450.15039 0.776207
8450.98047 0.77439
8451.80957 0.772572
8452.62988 0.770767
8453.45020 0.768953
8454.26953 0.76715
8455.09961 0.765337
8455.92969 0.763526
8456.74023 0.761736
8457.57031 0.759926
8458.40039 0.758116
8459.21973 0.756317
8460.04980 0.754653
8460.87012 0.755453
8461.69043 0.756255
8462.51953 0.757056
8463.33984 0.757852
8464.16992 0.75865
8464.99023 0.759449
8465.82031 0.760246
8466.65039 0.761043
8467.46973 0.761831
8468.29004 0.762626
8469.12012 0.763421
8469.94043 0.764209
8470.76953 0.764195
8471.59961 0.764122
8472.41992 0.764048
8473.25000 0.763972
8474.07031 0.763899
8474.90039 0.763826
8475.73047 0.76375
8476.54980 0.763674
8477.37988 0.7636
8478.20996 0.763523
8479.03027 0.763446
8479.86035 0.763371
8480.67969 0.763109
8481.50977 0.762808
8482.33984 0.762506
8483.16016 0.762204
8483.99023 0.761899
8484.82031 0.761597
8485.65039 0.761295
8486.46973 0.760992
8487.29980 0.760687
8488.12988 0.760382
8488.95996 0.760077
8489.78027 0.759775
8490.61035 0.758832
8491.44043 0.757659
8492.25977 0.756493
8493.08984 0.755322
8493.91992 0.754158
8494.75000 0.752989
8495.58008 0.751819
8496.41016 0.750658
8497.24023 0.749491
8498.05957 0.748329
8498.88965 0.747163
8499.71973 0.745996
8500.54004 0.745812
8501.37012 0.746122
8502.20020 0.74643
8503.03027 0.746737
8503.86035 0.747047
8504.69043 0.747355
8505.51953 0.74766
8506.34961 0.747966
8507.17969 0.748269
8508.00977 0.748574
8508.83984 0.748878
8509.66992 0.749183
8510.50000 0.748986
8511.33008 0.748459
8512.15039 0.747932
8512.98047 0.747403
8513.80957 0.746876
8514.63965 0.746345
8515.48047 0.745816
8516.29980 0.745289
8517.13965 0.744758
8517.96973 0.74423
8518.79980 0.743702
8519.62012 0.743174
8520.45996 0.743866
8521.29004 0.745568
8522.12012 0.747266
8522.94043 0.748944
8523.78027 0.750643
8524.61035 0.75233
8525.44043 0.754025
8526.26953 0.755718
8527.09961 0.757399
8527.92969 0.759088
8528.76953 0.760779
8529.59961 0.762456
8530.42969 0.761916
8531.25977 0.759297
8532.08984 0.756667
8532.92969 0.754039
8533.75000 0.751439
8534.58008 0.748814
8535.41992 0.746191
8536.25000 0.743587
8537.08008 0.740969
8537.91016 0.738368
8538.75000 0.735756
8539.58008 0.733145
8540.41016 0.732229
8541.25000 0.733039
8542.08008 0.73384
8542.91016 0.734649
8543.74023 0.735453
8544.57031 0.736249
8545.41016 0.737054
8546.24023 0.737858
8547.07031 0.738655
8547.91016 0.739458
8548.74023 0.74026
8549.57031 0.741057
8550.41016 0.741889
8551.24023 0.74275
8552.07031 0.743613
8552.91016 0.744477
8553.74023 0.745335
8554.58008 0.746198
8555.41016 0.747055
8556.24023 0.747908
8557.08008 0.748767
8557.91016 0.74962
8558.74023 0.750477
8559.58008 0.751333
8560.41016 0.751947
8561.25000 0.752321
8562.08008 0.752695
8562.91992 0.753065
8563.75000 0.753434
8564.58984 0.753807
8565.41992 0.754178
8566.25977 0.754549
8567.08984 0.754916
8567.91992 0.755285
8568.75977 0.755655
8569.58984 0.756021
8570.42969 0.754719
8571.25977 0.751863
8572.09961 0.748992
8572.94043 0.746124
8573.76953 0.743275
8574.61035 0.740408
8575.44043 0.737562
8576.28027 0.734702
8577.12012 0.731844
8577.95020 0.729019
8578.79004 0.726163
8579.62988 0.723309
8580.45996 0.722972
8581.29980 0.724681
8582.13965 0.726389
8582.96973 0.728086
8583.80957 0.729788
8584.63965 0.73148
8585.48047 0.73318
8586.32031 0.734868
8587.16016 0.736564
8588.00000 0.738259
8588.83008 0.739952
8589.66016 0.741625
8590.50000 0.741282
8591.33984 0.739589
8592.17969 0.737886
8593.01953 0.736185
8593.84961 0.734495
8594.69043 0.732797
8595.53027 0.731097
8596.37012 0.729409
8597.20996 0.727714
8598.04004 0.726028
8598.87988 0.724334
8599.71973 0.72265
8600.55957 0.721981
8601.40039 0.721826
8602.23047 0.72167
8603.07031 0.721513
8603.91016 0.721358
8604.75000 0.721203
8605.58984 0.721047
8606.42969 0.720891
8607.26953 0.720733
8608.09961 0.720575
8608.94043 0.720417
8609.78027 0.720259
8610.62988 0.719924
8611.45996 0.719532
8612.29980 0.719135
8613.13965 0.718738
8613.98047 0.718344
8614.82031 0.717948
8615.66016 0.717553
8616.50000 0.717155
8617.33984 0.716758
8618.17969 0.716362
8619.01953 0.715965
8619.86035 0.715571
8620.70020 0.715869
8621.54004 0.716308
8622.37988 0.716741
8623.21973 0.717177
8624.05957 0.717613
8624.90039 0.718044
8625.74023 0.718478
8626.58984 0.718913
8627.41992 0.719343
8628.26953 0.719775
8629.09961 0.720204
8629.95020 0.720631
8630.79004 0.720396
8631.62988 0.720115
8632.48047 0.719834
8633.32031 0.719553
8634.15039 0.719275
8635.00000 0.718993
8635.83008 0.718713
8636.67969 0.718431
8637.51953 0.71815
8638.36035 0.717869
8639.20996 0.717586
8640.04980 0.717246
8640.88965 0.715999
8641.73047 0.714748
8642.57031 0.713503
8643.41992 0.712251
8644.25977 0.711
8645.09961 0.709762
8645.94043 0.708512
8646.79004 0.707263
8647.62988 0.706021
8648.46973 0.704772
8649.30957 0.703529
8650.16016 0.702591
8651.00000 0.70298
8651.84961 0.703366
8652.69043 0.703753
8653.53027 0.70414
8654.37988 0.704525
8655.21973 0.704911
8656.05957 0.705292
8656.91016 0.705678
8657.75000 0.706062
8658.58984 0.706442
8659.44043 0.706825
8660.28027 0.706985
8661.12988 0.706705
8661.96973 0.706422
8662.80957 0.706141
8663.66016 0.705859
8664.50000 0.705578
8665.34961 0.705296
8666.20020 0.705013
8667.04004 0.704731
8667.87988 0.704452
8668.73047 0.704168
8669.57031 0.703888
8670.41992 0.703155
8671.25977 0.70196
8672.11035 0.70077
8672.95020 0.699575
8673.79980 0.698382
8674.65039 0.697197
8675.49023 0.696011
8676.33984 0.694818
8677.17969 0.693628
8678.03027 0.692438
8678.87012 0.691264
8679.71973 0.690074
8680.55957 0.689786
8681.41016 0.689947
8682.25977 0.690108
8683.09961 0.690267
8683.95020 0.690427
8684.79980 0.690586
8685.63965 0.690744
8686.49023 0.690902
8687.33984 0.69106
8688.19043 0.691218
8689.03027 0.691372
8689.87012 0.691528
8690.71973 0.691123
8691.57031 0.690619
8692.41992 0.690117
8693.26953 0.689614
8694.11035 0.689113
8694.95996 0.68861
8695.80957 0.688108
8696.66016 0.687604
8697.50977 0.687099
8698.34961 0.6866
8699.20020 0.686096
8700.04980 0.685567
8700.88965 0.684632
8701.74023 0.683687
8702.58984 0.682745
8703.44043 0.681806
8704.29004 0.680863
8705.13965 0.679922
8705.98047 0.678985
8706.83984 0.678045
8707.67969 0.67711
8708.53027 0.676169
8709.37988 0.675234
8710.23047 0.674729
8711.08008 0.675396
8711.92969 0.676061
8712.76953 0.676716
8713.62988 0.67738
8714.46973 0.678041
8715.32031 0.678702
8716.17969 0.679362
8717.01953 0.680018
8717.87988 0.680677
8718.73047 0.681337
8719.57031 0.681989
8720.42969 0.681732
8721.26953 0.680568
8722.12012 0.679402
8722.98047 0.678233
8723.82031 0.677078
8724.66992 0.675912
8725.51953 0.674746
8726.37012 0.673585
8727.23047 0.67242
8728.07031 0.671264
8728.92969 0.670098
8729.78027 0.668938
8730.62988 0.668472
8731.48047 0.66825
8732.33008 0.668031
8733.17969 0.667808
8734.04004 0.667584
8734.87988 0.667364
8735.73047 0.667141
8736.58984 0.666917
8737.44043 0.666695
8738.29004 0.666473
8739.15039 0.666249
8739.99023 0.666027
8740.84961 0.665857
8741.70020 0.665686
8742.54980 0.665515
8743.41016 0.665345
8744.25977 0.665176
8745.11035 0.665004
8745.95996 0.664835
8746.80957 0.664664
8747.66992 0.664491
8748.50977 0.66432
8749.37012 0.664148
8750.23047 0.663734
8751.08008 0.662644
8751.92969 0.66155
8752.79004 0.660454
8753.63965 0.659365
8754.49023 0.658279
8755.33984 0.657187
8756.20020 0.656095
8757.04980 0.655006
8757.90039 0.653925
8758.75977 0.652836
8759.61035 0.651754
8760.45996 0.651584
8761.32031 0.652193
8762.16992 0.652796
8763.03027 0.653404
8763.87988 0.654009
8764.73047 0.654609
8765.58984 0.655213
8766.44043 0.655814
8767.29980 0.656419
8768.16016 0.657021
8769.00000 0.657613
8769.86035 0.658215
8770.71973 0.658076
8771.57031 0.657792
8772.42969 0.657507
8773.28027 0.657224
8774.13965 0.65694
8774.99023 0.656655
8775.84961 0.656373
8776.70020 0.656087
8777.55957 0.655803
8778.41992 0.655518
8779.26953 0.655233
8780.12012 0.654938
8780.98047 0.654556
8781.83984 0.654175
8782.69043 0.653796
8783.54980 0.653413
8784.41016 0.653031
8785.25977 0.652651
8786.12012 0.65227
8786.96973 0.651892
8787.83008 0.651511
8788.69043 0.651129
8789.54980 0.65075
8790.40039 0.650353
8791.25977 0.649938
8792.11035 0.649527
8792.96973 0.649111
8793.83008 0.648699
8794.69043 0.648285
8795.54980 0.647871
8796.40039 0.647458
8797.25977 0.647043
8798.12012 0.646627
8798.96973 0.646215
8799.83008 0.645803
8800.69043 0.645884
8801.54980 0.646089
8802.41016 0.646292
8803.25977 0.646492
8804.12012 0.646695
8804.98047 0.646894
8805.83984 0.647094
8806.70020 0.647294
8807.54980 0.647493
8808.41016 0.647692
8809.26953 0.64789
8810.12988 0.647998
8810.99023 0.647596
8811.84961 0.647196
8812.70996 0.646792
8813.57031 0.646388
8814.41992 0.645991
8815.28027 0.645588
8816.13965 0.645185
8817.00000 0.644786
8817.86035 0.644383
8818.71973 0.643981
8819.58008 0.643581
8820.44043 0.643271
8821.29980 0.643052
8822.16016 0.642832
8823.01953 0.642612
8823.87988 0.642392
8824.74023 0.642172
8825.59961 0.641951
8826.45996 0.641732
8827.32031 0.641512
8828.17969 0.641292
8829.04004 0.641071
8829.90039 0.640849
8830.75977 0.640598
8831.62012 0.64034
8832.49023 0.640081
8833.34961 0.639825
8834.20996 0.639568
8835.07031 0.639309
8835.92969 0.639052
8836.79980 0.638794
8837.65039 0.638537
8838.50977 0.638278
8839.37012 0.63802
8840.24023 0.637845
8841.09961 0.637889
8841.95996 0.63793
8842.82031 0.637971
8843.69043 0.638014
8844.54980 0.638055
8845.41016 0.638095
8846.26953 0.638135
8847.12988 0.638173
8848.00000 0.638213
8848.84961 0.638253
8849.71973 0.638292
8850.58008 0.637865
8851.44043 0.637217
8852.30957 0.636566
8853.16992 0.635918
8854.03027 0.635268
8854.90039 0.634618
8855.75977 0.633973
8856.62012 0.633323
8857.49023 0.632677
8858.34961 0.632028
8859.21973 0.631378
8860.07031 0.630762
8860.94043 0.630438
8861.80957 0.630115
8862.66992 0.629792
8863.53027 0.629467
8864.40039 0.629142
8865.25977 0.62882
8866.12988 0.628497
8866.99023 0.628174
8867.84961 0.627847
8868.71973 0.627523
8869.58008 0.627197
8870.45020 0.626661
8871.32031 0.625931
8872.16992 0.625207
8873.04004 0.624477
8873.90039 0.62375
8874.76953 0.62302
8875.63965 0.62229
8876.50000 0.621566
8877.37012 0.620837
8878.23047 0.620108
8879.09961 0.619384
8879.96973 0.618658
8880.83008 0.618381
8881.69043 0.618122
8882.55957 0.617863
8883.41992 0.617607
8884.29004 0.617347
8885.16016 0.617086
8886.01953 0.616828
8886.88965 0.616568
8887.75000 0.616311
8888.62012 0.616052
8889.49023 0.615791
8890.34961 0.615435
8891.21973 0.614937
8892.08984 0.614442
8892.95996 0.613944
8893.83008 0.613446
8894.67969 0.612955
8895.54980 0.612458
8896.41992 0.61196
8897.29004 0.611466
8898.16016 0.610967
8899.03027 0.61047
8899.88965 0.609975
8900.75977 0.609949
8901.62988 0.609993
8902.50000 0.610035
8903.36035 0.610075
8904.23047 0.610114
8905.09961 0.610153
8905.96973 0.610195
8906.83008 0.610234
8907.70020 0.610273
8908.57031 0.610311
8909.44043 0.610349
8910.30957 0.609747
8911.16992 0.607989
8912.04980 0.606224
8912.91992 0.604464
8913.78027 0.602709
8914.65039 0.600948
8915.51953 0.599198
8916.38965 0.597437
8917.25977 0.595681
8918.12012 0.593946
8919.00000 0.592191
8919.86035 0.59045
8920.73047 0.589904
8921.59961 0.589584
8922.46973 0.589267
8923.33984 0.588949
8924.21973 0.588629
8925.08008 0.588309
8925.95996 0.587992
8926.82031 0.587674
8927.69043 0.587353
8928.57031 0.587033
8929.42969 0.586718
8930.29980 0.58661
8931.17969 0.5869
8932.04004 0.587186
8932.91992 0.587475
8933.78027 0.587763
8934.66016 0.58805
8935.53027 0.588335
8936.40039 0.588618
8937.26953 0.588903
8938.15039 0.589187
8939.00977 0.58947
8939.88965 0.589752
8940.75000 0.589242
8941.62988 0.588609
8942.50000 0.587975
8943.37012 0.587345
8944.24023 0.586712
8945.12012 0.586081
8945.99023 0.585452
8946.86035 0.584819
8947.73047 0.584191
8948.59961 0.583561
8949.46973 0.582933
8950.34961 0.582252
8951.21973 0.581497
8952.09961 0.580745
8952.95996 0.58
8953.83984 0.579249
8954.70996 0.5785
8955.58008 0.577749
8956.45996 0.576997
8957.33008 0.57625
8958.20020 0.5755
8959.08008 0.574747
8959.95020 0.574002
8960.83008 0.572916
8961.69043 0.571818
8962.57031 0.570714
8963.45020 0.56961
8964.30957 0.56852
8965.19043 0.567419
8966.07031 0.566318
8966.94043 0.565224
8967.80957 0.564123
8968.67969 0.563032
8969.55957 0.561935
8970.44043 0.561519
8971.30957 0.561788
8972.19043 0.562056
8973.05957 0.562321
8973.92969 0.562588
8974.80957 0.562854
8975.67969 0.563117
8976.55957 0.563382
8977.42969 0.563646
8978.30957 0.563908
8979.17969 0.564171
8980.05957 0.564386
8980.92969 0.563944
8981.80957 0.563503
8982.67969 0.563063
8983.55957 0.562622
8984.44043 0.56218
8985.30957 0.561741
8986.19043 0.5613
8987.05957 0.560861
8987.94043 0.560423
8988.82031 0.559982
8989.69043 0.559541
8990.57031 0.559401
8991.44043 0.559428
8992.32031 0.559452
8993.20020 0.559474
8994.08008 0.559499
8994.95020 0.559522
8995.83008 0.559544
8996.70020 0.559566
8997.58008 0.559589
8998.45996 0.559611
8999.33008 0.559632
9000.20996 0.559669
9001.08984 0.559756
9001.96973 0.559845
9002.84961 0.559931
9003.71973 0.560017
9004.59961 0.560104
9005.48047 0.560188
9006.34961 0.560271
9007.24023 0.560355
9008.11035 0.560437
9008.99023 0.56052
9009.87012 0.560603
9010.74023 0.560358
9011.62012 0.56005
9012.50000 0.559745
9013.37988 0.559441
9014.25977 0.559135
9015.13965 0.558831
9016.01953 0.558525
9016.90039 0.55822
9017.76953 0.557914
9018.66016 0.557607
9019.53027 0.557303
9020.41016 0.556911
9021.29980 0.556421
9022.16992 0.55594
9023.04980 0.555454
9023.92969 0.554964
9024.80957 0.554479
9025.69043 0.553992
9026.57031 0.553505
9027.45020 0.55302
9028.33008 0.552533
9029.20996 0.552049
9030.08984 0.55156
9030.96973 0.551068
9031.84961 0.550579
9032.73047 0.550087
9033.61035 0.549594
9034.49023 0.549109
9035.37012 0.548617
9036.25000 0.548127
9037.12988 0.547636
9038.00977 0.547145
9038.88965 0.546656
9039.78027 0.546163
9040.66016 0.545837
9041.54004 0.54557
9042.41992 0.545302
9043.29980 0.545034
9044.17969 0.544764
9045.07031 0.544491
9045.94043 0.544225
9046.83008 0.543956
9047.70996 0.543688
9048.58984 0.543419
9049.46973 0.543148
9050.34961 0.542671
9051.24023 0.541881
9052.12012 0.54109
9053.00000 0.540305
9053.88965 0.539518
9054.76953 0.538735
9055.65039 0.537946
9056.54004 0.537159
9057.41016 0.536382
9058.29980 0.535596
9059.17969 0.534809
9060.05957 0.53407
9060.95020 0.533904
9061.83008 0.533741
9062.70996 0.533575
9063.59961 0.533409
9064.48047 0.533245
9065.36035 0.533081
9066.25000 0.532916
9067.12988 0.532748
9068.01953 0.532578
9068.90039 0.53241
9069.78027 0.532245
9070.66992 0.532391
9071.54980 0.532642
9072.42969 0.532894
9073.32031 0.533143
9074.20020 0.533391
9075.08984 0.533637
9075.98047 0.533883
9076.86035 0.534129
9077.75000 0.534375
9078.62988 0.534618
9079.50977 0.534862
9080.40039 0.534382
9081.28027 0.533045
9082.16992 0.531694
9083.04980 0.530351
9083.94043 0.529
9084.83008 0.52765
9085.70996 0.52631
9086.59961 0.524964
9087.48047 0.52362
9088.37012 0.522283
9089.25000 0.52094
9090.13965 0.519794
9091.03027 0.51966
9091.91992 0.519524
9092.79004 0.51939
9093.67969 0.519255
9094.57031 0.519118
9095.45020 0.518981
9096.33984 0.518845
9097.23047 0.518709
9098.12012 0.518571
9099.00000 0.518433
9099.88965 0.518296
9100.78027 0.517509
9101.66016 0.516633
9102.54980 0.515753
9103.44043 0.514874
9104.32031 0.514005
9105.20996 0.513124
9106.09961 0.512247
9106.99023 0.511374
9107.87988 0.510499
9108.76953 0.509623
9109.65039 0.508752
9110.54004 0.508893
9111.42969 0.509686
9112.32031 0.510481
9113.20996 0.511275
9114.08984 0.512064
9114.98047 0.512856
9115.87012 0.513646
9116.75000 0.514425
9117.65039 0.51521
9118.53027 0.51599
9119.41992 0.516775
9120.30957 0.517041
9121.20020 0.516364
9122.08984 0.515687
9122.98047 0.515005
9123.87012 0.514328
9124.75977 0.51365
9125.65039 0.512975
9126.54004 0.512296
9127.42969 0.511617
9128.30957 0.510945
9129.20996 0.510269
9130.09961 0.509555
9130.99023 0.508554
9131.87988 0.507548
9132.75977 0.506548
9133.66016 0.505545
9134.54980 0.50454
9135.44043 0.503542
9136.33008 0.502541
9137.21973 0.50154
9138.11035 0.500545
9139.00000 0.499546
9139.88965 0.498559
9140.78027 0.4984
9141.66992 0.498362
9142.55957 0.498323
9143.45020 0.498284
9144.34961 0.498245
9145.24023 0.498206
9146.12988 0.498167
9147.01953 0.498124
9147.91016 0.498084
9148.80957 0.498043
9149.70020 0.498002
9150.58984 0.497975
9151.49023 0.497955
9152.37012 0.497934
9153.25977 0.497912
9154.15039 0.497889
9155.04980 0.497867
9155.94043 0.497843
9156.83008 0.497821
9157.73047 0.497798
9158.62012 0.497771
9159.50977 0.497745
9160.41016 0.497439
9161.29980 0.496802
9162.19043 0.496161
9163.08984 0.495519
9163.96973 0.494884
9164.87012 0.494244
9165.75977 0.493606
9166.66016 0.492966
9167.54980 0.492327
9168.44043 0.49169
9169.33984 0.49105
9170.23047 0.490541
9171.12012 0.490397
9172.01953 0.490254
9172.91016 0.49011
9173.80957 0.489964
9174.70020 0.489818
9175.58984 0.489675
9176.49023 0.489529
9177.38965 0.489381
9178.28027 0.489234
9179.16992 0.489088
9180.07031 0.488925
9180.95996 0.488576
9181.86035 0.488224
9182.75000 0.487874
9183.65039 0.487522
9184.54980 0.48717
9185.44043 0.486821
9186.33984 0.486469
9187.23047 0.486121
9188.12012 0.485768
9189.01953 0.485417
9189.91016 0.485066
9190.80957 0.484951
9191.70996 0.484858
9192.59961 0.484766
9193.50000 0.484672
9194.40039 0.48458
9195.29004 0.484487
9196.19043 0.484393
9197.08984 0.484298
9197.98047 0.484202
9198.87988 0.484107
9199.76953 0.484013
9200.66992 0.48405
9201.57031 0.484132
9202.45996 0.484216
9203.36035 0.484299
9204.25977 0.48438
9205.16016 0.484461
9206.05957 0.484542
9206.95020 0.484618
9207.84961 0.484698
9208.75000 0.484777
9209.65039 0.484855
9210.54980 0.484542
9211.44043 0.483983
9212.33984 0.483419
9213.24023 0.482855
9214.12988 0.482292
9215.03027 0.481728
9215.92969 0.481167
9216.83008 0.480605
9217.73047 0.48004
9218.62012 0.479478
9219.51953 0.478916
9220.41992 0.478557
9221.32031 0.478423
9222.21973 0.478288
9223.11035 0.478156
9224.01953 0.478021
9224.91992 0.477888
9225.80957 0.477754
9226.71973 0.477617
9227.62012 0.477481
9228.50977 0.477348
9229.41992 0.477212
9230.30957 0.476974
9231.21973 0.476545
9232.12012 0.476118
9233.00977 0.475694
9233.91992 0.475264
9234.82031 0.474838
9235.70996 0.474414
9236.61035 0.473985
9237.50977 0.473559
9238.41016 0.473132
9239.32031 0.472704
9240.20996 0.472277
9241.12012 0.471836
9242.01953 0.471395
9242.91992 0.470961
9243.82031 0.47052
9244.71973 0.470084
9245.62012 0.469645
9246.53027 0.469206
9247.41992 0.468772
9248.32031 0.468333
9249.21973 0.467894
9250.12988 0.467538
9251.03027 0.467709
9251.92969 0.467875
9252.83008 0.468041
9253.74023 0.46821
9254.63965 0.468374
9255.54004 0.468539
9256.44043 0.468702
9257.33984 0.468865
9258.25000 0.469027
9259.15039 0.469189
9260.04980 0.469335
9260.95020 0.469231
9261.84961 0.469129
9262.75977 0.469027
9263.66016 0.468924
9264.55957 0.468821
9265.46973 0.468717
9266.37012 0.468613
9267.26953 0.468507
9268.17969 0.4684
9269.08008 0.468293
9269.99023 0.468187
9270.87988 0.46765
9271.79004 0.467101
9272.69043 0.466552
9273.59961 0.466006
9274.50000 0.465457
9275.41016 0.464909
9276.30957 0.464364
9277.21973 0.463814
9278.12012 0.46327
9279.01953 0.462721
9279.92969 0.462175
9280.83008 0.461559
9281.74023 0.460932
9282.65039 0.460308
9283.54980 0.45969
9284.45020 0.459065
9285.34961 0.458445
9286.25977 0.457822
9287.16992 0.457199
9288.07031 0.45658
9288.98047 0.455956
9289.88965 0.455332
9290.79004 0.4552
9291.70020 0.455137
9292.59961 0.455075
9293.50977 0.45501
9294.41016 0.454944
9295.30957 0.45488
9296.21973 0.454814
9297.12988 0.454748
9298.03027 0.454685
9298.94043 0.454615
9299.84961 0.454546
9300.75977 0.454106
9301.66992 0.453588
9302.57031 0.453075
9303.48047 0.452561
9304.38965 0.452045
9305.29004 0.451532
9306.20020 0.451016
9307.09961 0.450507
9308.00977 0.449991
9308.91992 0.449473
9309.82031 0.448962
9310.73047 0.448777
9311.63965 0.448672
9312.54980 0.448566
9313.45996 0.448457
9314.36035 0.44835
9315.26953 0.448242
9316.17969 0.448133
9317.08984 0.448024
9318.00000 0.447915
9318.91016 0.447804
9319.80957 0.447695
9320.71973 0.447119
9321.62988 0.446425
9322.54004 0.445728
9323.45020 0.445031
9324.34961 0.444339
9325.26953 0.443643
9326.17969 0.442948
9327.08008 0.442256
9328.00000 0.441563
9328.90039 0.440874
9329.80957 0.44018
9330.73047 0.439694
9331.62988 0.439266
9332.54004 0.438837
9333.44043 0.438411
9334.36035 0.43798
9335.26953 0.43755
9336.17969 0.437119
9337.08984 0.436687
9338.00000 0.436257
9338.91016 0.435829
9339.82031 0.435399
9340.73047 0.435086
9341.63965 0.434799
9342.54980 0.434514
9343.45996 0.434229
9344.37012 0.43394
9345.28027 0.433652
9346.19043 0.433368
9347.09961 0.433078
9348.00977 0.432791
9348.92969 0.4325
9349.83984 0.432214
9350.75000 0.431772
9351.66016 0.431297
9352.58008 0.43082
9353.49023 0.430347
9354.40039 0.429871
9355.29980 0.429398
9356.21973 0.428922
9357.12988 0.428446
9358.04004 0.427972
9358.95996 0.427497
9359.87012 0.427019
9360.78027 0.426561
9361.69043 0.426101
9362.59961 0.425645
9363.51953 0.425185
9364.42969 0.424726
9365.33984 0.424269
9366.25977 0.423811
9367.16992 0.423356
9368.08008 0.4229
9369.00000 0.422439
9369.91016 0.421985
9370.82031 0.421541
9371.74023 0.421097
9372.65039 0.420657
9373.55957 0.420214
9374.48047 0.419772
9375.38965 0.419333
9376.30957 0.418889
9377.21973 0.418451
9378.13965 0.418007
9379.04980 0.417567
9379.95996 0.417128
9380.87012 0.416529
9381.79004 0.415923
9382.70020 0.415319
9383.62012 0.414714
9384.53027 0.414111
9385.45020 0.413505
9386.36035 0.412901
9387.28027 0.412301
9388.19043 0.411695
9389.11035 0.41109
9390.01953 0.410497
9390.94043 0.410191
9391.84961 0.409882
9392.76953 0.409571
9393.69043 0.409261
9394.59961 0.408951
9395.51953 0.40864
9396.42969 0.408329
9397.34961 0.40802
9398.26953 0.407707
9399.17969 0.407396
9400.09961 0.407035
9401.01953 0.406261
9401.92969 0.40549
9402.84961 0.404717
9403.75977 0.403949
9404.67969 0.403181
9405.59961 0.402409
9406.50977 0.401644
9407.42969 0.400873
9408.34961 0.400103
9409.25977 0.399339
9410.17969 0.398402
9411.09961 0.396779
9412.01953 0.395165
9412.94043 0.393545
9413.84961 0.39194
9414.76953 0.390325
9415.69043 0.388713
9416.59961 0.387123
9417.51953 0.385516
9418.44043 0.38392
9419.34961 0.38232
9420.28027 0.381246
9421.19043 0.381397
9422.11035 0.381548
9423.03027 0.381697
9423.95020 0.381845
9424.87012 0.381991
9425.78027 0.382137
9426.70996 0.382281
9427.62988 0.382422
9428.54004 0.382564
9429.45996 0.382703
9430.37988 0.382501
9431.29980 0.381825
9432.21973 0.381144
9433.13965 0.380469
9434.05957 0.379788
9434.98047 0.379113
9435.90039 0.378437
9436.82031 0.377756
9437.74023 0.37708
9438.66016 0.376407
9439.58008 0.375731
9440.49023 0.37501
9441.41992 0.374234
9442.33984 0.373461
9443.25977 0.372692
9444.17969 0.371919
9445.09961 0.371145
9446.01953 0.370381
9446.94043 0.369607
9447.86035 0.368843
9448.78027 0.368076
9449.70996 0.367306
9450.62012 0.366579
9451.54980 0.365863
9452.46973 0.365154
9453.38965 0.364445
9454.30957 0.363732
9455.23047 0.363026
9456.15039 0.362314
9457.08008 0.361604
9458.00000 0.360895
9458.91992 0.360191
9459.83984 0.359481
9460.75977 0.358666
9461.69043 0.357823
9462.61035 0.356988
9463.53027 0.35615
9464.45996 0.355312
9465.37012 0.354482
9466.29980 0.353647
9467.21973 0.352812
9468.13965 0.351981
9469.07031 0.351147
9469.99023 0.350319
9470.91016 0.349924
9471.83984 0.349535
9472.75977 0.349145
9473.67969 0.348755
9474.61035 0.348365
9475.53027 0.347977
9476.45996 0.347587
9477.37012 0.347201
9478.29980 0.34681
9479.21973 0.346421
9480.15039 0.345979
9481.07031 0.345258
9482.00000 0.344534
9482.91992 0.343819
9483.84961 0.343098
9484.76953 0.342382
9485.69043 0.341662
9486.62012 0.340943
9487.54004 0.340231
9488.46973 0.339514
9489.40039 0.338798
9490.30957 0.338241
9491.24023 0.337974
9492.16016 0.337709
9493.08984 0.337441
9494.01953 0.337172
9494.94043 0.336903
9495.87012 0.336636
9496.79980 0.336367
9497.71973 0.336098
9498.65039 0.335827
9499.57031 0.335557
9500.50000 0.335316
9501.41992 0.335102
9502.34961 0.334886
9503.26953 0.334668
9504.20020 0.334452
9505.12988 0.334235
9506.05957 0.334018
9506.98047 0.333797
9507.91016 0.333577
9508.83984 0.333359
9509.75977 0.333139
9510.69043 0.333056
9511.62012 0.333018
9512.54980 0.332979
9513.48047 0.332939
9514.40039 0.332898
9515.32031 0.332856
9516.25000 0.332813
9517.17969 0.332769
9518.11035 0.332726
9519.03027 0.332679
9519.95996 0.332637
9520.90039 0.332407
9521.82031 0.332173
9522.75000 0.331937
9523.67969 0.331701
9524.61035 0.331469
9525.54004 0.331233
9526.45996 0.330997
9527.38965 0.330759
9528.32031 0.330522
9529.25000 0.330286
9530.17969 0.330016
9531.11035 0.329617
9532.03027 0.329221
9532.96973 0.328821
9533.88965 0.328429
9534.82031 0.32803
9535.75000 0.327633
9536.67969 0.327236
9537.61035 0.326837
9538.54980 0.326438
9539.46973 0.326044
9540.40039 0.325147
9541.33008 0.323592
9542.25977 0.322037
9543.19043 0.320481
9544.12012 0.318937
9545.04980 0.317389
9545.98047 0.315842
9546.91016 0.314308
9547.83984 0.31277
9548.76953 0.31124
9549.70996 0.309706
9550.62988 0.307458
9551.55957 0.304876
9552.50000 0.302289
9553.42969 0.299704
9554.36035 0.297138
9555.29004 0.294565
9556.21973 0.292013
9557.15039 0.289451
9558.08984 0.286894
9559.01953 0.284359
9559.95020 0.281812
9560.88965 0.277836
9561.80957 0.273817
9562.75000 0.269781
9563.66992 0.265802
9564.61035 0.261787
9565.54004 0.257782
9566.46973 0.253807
9567.41016 0.249822
9568.33984 0.245845
9569.26953 0.241902
9570.20996 0.237754
9571.13965 0.23297
9572.07031 0.228172
9573.00977 0.223389
9573.94043 0.218639
9574.87012 0.213877
9575.79980 0.209154
9576.73047 0.204441
9577.66992 0.199717
9578.59961 0.19503
9579.54004 0.190325
9580.46973 0.185453
9581.40039 0.180434
9582.33984 0.175407
9583.26953 0.17039
9584.20996 0.165415
9585.13965 0.160426
9586.08008 0.155478
9587.00977 0.150519
9587.95020 0.145575
9588.87988 0.140696
9589.80957 0.13578
9590.75000 0.131464
9591.67969 0.127334
9592.62012 0.123188
9593.54980 0.119075
9594.49023 0.114952
9595.42969 0.11084
9596.36035 0.10676
9597.29980 0.102671
9598.23047 0.0986127
9599.16992 0.0945454
9600.09961 0.0905981
9601.03027 0.0874347
9601.96973 0.084261
9602.91016 0.0810962
9603.83984 0.0779584
9604.78027 0.0748106
9605.70996 0.0716864
9606.65039 0.0685551
9607.58984 0.0654325
9608.51953 0.0623343
9609.45996 0.0592251
9610.40039 0.0565419
9611.33984 0.0544333
9612.28027 0.0523174
9613.20020 0.050232
9614.15039 0.0481277
9615.08008 0.0460301
9616.01953 0.0439489
9616.95996 0.0418633
9617.90039 0.0397832
9618.83008 0.03772
9619.76953 0.0356498
9620.70996 0.0341802
9621.65039 0.0328934
9622.58984 0.0316118
9623.51953 0.0303393
9624.45996 0.0290638
9625.40039 0.0277922
9626.33008 0.0265388
9627.26953 0.0252733
9628.20996 0.0240194
9629.15039 0.0227629
9630.08984 0.0215559
9631.03027 0.020796
9631.96973 0.0200334
9632.91016 0.0192732
9633.84961 0.0185198
9634.79004 0.0177637
9635.71973 0.0170138
9636.66992 0.0162622
9637.61035 0.0155119
9638.54004 0.0147731
9639.48047 0.0140271
9640.41992 0.0134101
9641.36035 0.012952
9642.29980 0.0124935
9643.24023 0.0120381
9644.17969 0.0115818
9645.12012 0.0111269
9646.05957 0.0106756
9647.00000 0.0102235
9647.94043 0.00977282
9648.87988 0.00932568
9649.83008 0.0088772
9650.75977 0.00855803
9651.70020 0.00826491
9652.65039 0.00797234
9653.58008 0.00768209
9654.53027 0.00739119
9655.46973 0.00710115
9656.41016 0.00681342
9657.34961 0.00652501
9658.29004 0.006239
9659.23047 0.00595232
9660.17969 0.00568683
9661.12012 0.00551238
9662.05957 0.00533739
9663.00000 0.00516292
9663.94043 0.00499095
9664.87988 0.0048175
9665.82031 0.00464551
9666.76953 0.00447316
9667.70996 0.00430131
9668.65039 0.0041309
9669.59961 0.00395996
9670.54004 0.0038221
9671.48047 0.00370935
9672.41992 0.0035965
9673.36035 0.00348445
9674.30957 0.00337215
9675.25977 0.00326022
9676.19043 0.00314988
9677.13965 0.00303852
9678.08008 0.00292818
9679.01953 0.0028176
10646.92188 0.0
