# %ECSV 0.9
# ---
# datatype:
# - {name: wavelength, unit: Angstrom, datatype: float32}
# - {name: response, datatype: float32}
# meta: !!omap
# - {band_name: F850LP_81}
# - {group_name: ACS_WFC}
wavelength response
7165.39502 0.0
7961.54980 0.00368111
7962.35010 0.00375504
7963.14990 0.00382975
7963.95020 0.00390447
7964.75000 0.00397829
7965.56006 0.00405293
7966.35010 0.00412672
7967.14990 0.00420128
7967.95020 0.00427505
7968.75000 0.00434912
7969.54980 0.0044232
7970.35010 0.0044973
7971.16016 0.00457182
7971.95996 0.00464588
7972.75977 0.00471992
7973.56006 0.00479392
7974.35986 0.00486753
7975.16016 0.00494191
7975.95996 0.00501544
7976.77002 0.00508975
7977.56006 0.00516322
7978.37012 0.0052375
7979.16992 0.00531129
7979.97021 0.0053851
7980.77002 0.00546079
7981.58008 0.00553657
7982.37988 0.00561241
7983.18018 0.00568823
7983.97998 0.00576369
7984.77979 0.00583996
7985.58984 0.00591629
7986.39014 0.0059918
7987.18994 0.00606821
7987.99023 0.00614377
7988.79980 0.00622022
7989.60010 0.0062958
7990.39990 0.00637124
7991.20020 0.00644606
7992.00977 0.00652132
7992.81006 0.0065961
7993.62012 0.00667092
7994.41992 0.00674573
7995.22021 0.00682049
7996.02002 0.00689494
7996.83008 0.0069701
7997.62988 0.00704446
7998.43994 0.00711968
7999.24023 0.00719487
8000.04004 0.0072825
8000.85010 0.00760086
8001.64990 0.00791881
8002.45996 0.00823653
8003.25977 0.00855423
8004.06006 0.00887148
8004.87012 0.00918874
8005.68018 0.0095075
8006.47998 0.00982277
8007.27979 0.0101411
8008.08984 0.0104559
8008.89014 0.0107737
8009.68994 0.0110881
8010.50000 0.0113167
8011.29980 0.0114894
8012.10986 0.0116638
8012.91992 0.0118372
8013.72021 0.0120105
8014.52979 0.0121838
8015.33008 0.012357
8016.12988 0.0125293
8016.93994 0.0127034
8017.74023 0.0128754
8018.56006 0.0130494
8019.35986 0.0132233
8020.16992 0.0134002
8020.97998 0.0135984
8021.77979 0.0137944
8022.58008 0.0139914
8023.39014 0.0141884
8024.20020 0.0143854
8025.00000 0.0145823
8025.81006 0.0147802
8026.60986 0.0149761
8027.43018 0.0151739
8028.22998 0.0153697
8029.04004 0.0155675
8029.83984 0.0157632
8030.64990 0.0160034
8031.45020 0.016251
8032.27002 0.0165013
8033.06982 0.0167503
8033.87988 0.0169989
8034.68994 0.0172478
8035.49023 0.0174963
8036.29980 0.0177448
8037.10986 0.0179933
8037.91016 0.0182401
8038.72021 0.0184897
8039.52979 0.0187365
8040.33984 0.0190052
8041.14990 0.0193006
8041.95020 0.0195926
8042.75977 0.0198862
8043.56982 0.0201796
8044.37988 0.0204729
8045.18994 0.0207661
8046.00000 0.0210594
8046.81006 0.0213538
8047.62012 0.0216468
8048.41992 0.021938
8049.22998 0.0222322
8050.04004 0.0225239
8050.85010 0.0228345
8051.66016 0.0231418
8052.47021 0.0234526
8053.27002 0.0237597
8054.08984 0.0240704
8054.89990 0.0243797
8055.70996 0.0246887
8056.52002 0.0249978
8057.31982 0.0253068
8058.12988 0.025616
8058.93994 0.0259252
8059.75000 0.0262326
8060.56006 0.0265915
8061.37988 0.0269712
8062.18018 0.0273466
8063.00000 0.0277258
8063.79980 0.0281007
8064.60986 0.0284772
8065.41992 0.0288533
8066.22998 0.0292294
8067.04004 0.0296051
8067.85986 0.0299825
8068.66992 0.0303575
8069.47998 0.0307322
8070.29004 0.0311214
8071.10010 0.0315456
8071.91016 0.0319652
8072.72021 0.0323894
8073.52979 0.0328092
8074.35010 0.0332337
8075.16016 0.033658
8075.97021 0.0340776
8076.77979 0.0344998
8077.58984 0.0349219
8078.39990 0.0353441
8079.20996 0.0357663
8080.02979 0.0361959
8080.83984 0.0368412
8081.64990 0.0374902
8082.45996 0.0381321
8083.27979 0.0387807
8084.08984 0.0394222
8084.89990 0.0400704
8085.70996 0.0407118
8086.52002 0.0413565
8087.33984 0.0420006
8088.14990 0.0426448
8088.97021 0.0432928
8089.77979 0.0439367
8090.58984 0.0445406
8091.39990 0.0451286
8092.20996 0.0457133
8093.02979 0.046304
8093.83984 0.0468878
8094.64990 0.047478
8095.47021 0.0480676
8096.27979 0.0486501
8097.10010 0.0492357
8097.91016 0.0498208
8098.72021 0.0504055
8099.54004 0.05099
8100.35010 0.0516747
8101.16016 0.0524936
8101.97021 0.0533079
8102.79004 0.0541313
8103.60986 0.0549545
8104.41992 0.0557693
8105.24023 0.0565925
8106.04980 0.0574072
8106.87012 0.0582307
8107.68018 0.0590454
8108.49023 0.0598645
8109.31006 0.0606885
8110.12012 0.0614883
8110.93994 0.062183
8111.75977 0.062877
8112.56982 0.0635709
8113.39014 0.0642646
8114.20020 0.0649543
8115.02002 0.0656514
8115.83008 0.0663411
8116.64990 0.0670377
8117.47021 0.0677341
8118.27979 0.0684228
8119.08984 0.0691149
8119.91016 0.0698072
8120.72998 0.0707777
8121.54004 0.071783
8122.35986 0.0727877
8123.18018 0.0737973
8123.99023 0.0748009
8124.81006 0.075799
8125.62012 0.0768076
8126.43994 0.0778048
8127.25977 0.0788122
8128.06982 0.0798084
8128.89014 0.0808093
8129.70020 0.0818103
8130.52002 0.0827374
8131.33984 0.0836151
8132.16016 0.0844923
8132.97998 0.0853691
8133.79004 0.0862459
8134.60986 0.0871219
8135.43018 0.0879978
8136.24023 0.0888686
8137.06006 0.0897487
8137.87988 0.0906278
8138.70020 0.0914981
8139.52002 0.0923767
8140.33008 0.0933824
8141.14990 0.0945915
8141.97021 0.0957997
8142.79004 0.097007
8143.60010 0.0982146
8144.43018 0.0994279
8145.24023 0.100627
8146.06006 0.101839
8146.87988 0.103037
8147.70020 0.104248
8148.52002 0.105445
8149.33984 0.106655
8150.14990 0.107867
8150.97021 0.109157
8151.79004 0.110454
8152.60986 0.111744
8153.43018 0.113035
8154.25000 0.114324
8155.06982 0.115614
8155.89014 0.116903
8156.70020 0.118185
8157.52979 0.119481
8158.35010 0.120777
8159.16992 0.12206
8159.99023 0.123356
8160.81006 0.124707
8161.62988 0.126073
8162.45020 0.127422
8163.27002 0.128778
8164.08984 0.130132
8164.91016 0.131485
8165.72998 0.132844
8166.54980 0.134194
8167.37012 0.135536
8168.18994 0.136891
8169.00977 0.13823
8169.83984 0.139582
8170.64990 0.141007
8171.47998 0.142471
8172.29980 0.143935
8173.12012 0.145383
8173.93994 0.146838
8174.75977 0.148294
8175.58008 0.14975
8176.39990 0.151206
8177.22998 0.152662
8178.04980 0.154117
8178.85986 0.155565
8179.68994 0.157028
8180.52002 0.158632
8181.33008 0.160301
8182.16016 0.161989
8182.97998 0.163658
8183.79980 0.165336
8184.62012 0.167015
8185.43994 0.168692
8186.27002 0.170379
8187.10010 0.172058
8187.91992 0.173735
8188.74023 0.175413
8189.56006 0.177081
8190.39014 0.178797
8191.20020 0.180528
8192.03027 0.182276
8192.84961 0.184004
8193.67969 0.18575
8194.50000 0.187495
8195.32031 0.189219
8196.15039 0.190955
8196.96973 0.192686
8197.79004 0.194418
8198.62012 0.196149
8199.44043 0.197877
8200.26953 0.199687
8201.08984 0.201673
8201.91016 0.203637
8202.74023 0.205622
8203.55957 0.207586
8204.38965 0.209569
8205.20996 0.211532
8206.03027 0.213503
8206.86035 0.215474
8207.69043 0.217455
8208.50977 0.219424
8209.33984 0.221394
8210.16016 0.2233
8210.99023 0.224961
8211.80957 0.226612
8212.63965 0.228281
8213.45996 0.22993
8214.29004 0.231599
8215.12012 0.233266
8215.94043 0.234917
8216.76953 0.236585
8217.58984 0.238233
8218.41016 0.239892
8219.24023 0.241549
8220.07031 0.24326
8220.88965 0.245583
8221.71973 0.247914
8222.54004 0.250218
8223.37012 0.252545
8224.19043 0.254843
8225.03027 0.257166
8225.84961 0.259457
8226.67969 0.261774
8227.50000 0.264063
8228.33008 0.26636
8229.16016 0.26867
8229.99023 0.270962
8230.80957 0.272713
8231.63965 0.274455
8232.45996 0.276186
8233.29004 0.277937
8234.12012 0.279666
8234.95020 0.281416
8235.78027 0.283165
8236.59961 0.284892
8237.42969 0.28664
8238.25977 0.288369
8239.08984 0.290108
8239.91016 0.291843
8240.74023 0.293842
8241.57031 0.295869
8242.40039 0.297896
8243.23047 0.29993
8244.05957 0.301954
8244.87988 0.303966
8245.71973 0.306
8246.54004 0.308007
8247.37012 0.310038
8248.19043 0.312046
8249.03027 0.314073
8249.86035 0.316091
8250.69043 0.318596
8251.51953 0.321201
8252.33984 0.323806
8253.16992 0.326409
8254.00000 0.329011
8254.83008 0.331598
8255.66016 0.334213
8256.49023 0.3368
8257.32031 0.339414
8258.15039 0.342026
8258.98047 0.344609
8259.80957 0.347219
8260.63965 0.349947
8261.46973 0.352732
8262.29980 0.355515
8263.12988 0.358298
8263.95996 0.361078
8264.79004 0.363873
8265.62012 0.36665
8266.45020 0.369428
8267.28027 0.372202
8268.12012 0.374976
8268.94043 0.377734
8269.78027 0.380519
8270.59961 0.38297
8271.44043 0.385336
8272.26953 0.387688
8273.09961 0.390038
8273.92969 0.392386
8274.75977 0.394734
8275.58984 0.397081
8276.42969 0.399429
8277.25977 0.401774
8278.08984 0.40412
8278.92969 0.406475
8279.75000 0.408806
8280.58984 0.411316
8281.41992 0.413858
8282.25000 0.416413
8283.08008 0.418968
8283.91016 0.421522
8284.75000 0.424073
8285.58008 0.426639
8286.41992 0.429192
8287.25000 0.43174
8288.08008 0.434289
8288.91016 0.436838
8289.74023 0.43937
8290.58008 0.442159
8291.41016 0.445019
8292.24023 0.447911
8293.08008 0.450783
8293.91016 0.453651
8294.74023 0.456521
8295.58008 0.459383
8296.41016 0.462243
8297.24023 0.465104
8298.08008 0.467961
8298.91016 0.470811
8299.75000 0.47368
8300.58008 0.476262
8301.41992 0.478765
8302.25000 0.481238
8303.08984 0.483738
8303.91992 0.486208
8304.75000 0.488692
8305.58008 0.491172
8306.41992 0.493651
8307.25977 0.496145
8308.08984 0.498621
8308.92969 0.501098
8309.75977 0.503572
8310.59961 0.505103
8311.42969 0.506256
8312.25977 0.5074
8313.09961 0.508559
8313.94043 0.509715
8314.76953 0.510859
8315.61035 0.512008
8316.44043 0.513158
8317.28027 0.514304
8318.11035 0.51545
8318.95020 0.516596
8319.78027 0.517741
8320.62012 0.520979
8321.45996 0.524962
8322.29980 0.528921
8323.12988 0.532859
8323.96973 0.536837
8324.79980 0.54077
8325.63965 0.544728
8326.48047 0.548679
8327.30957 0.552634
8328.15039 0.556588
8328.99023 0.560559
8329.83008 0.564508
8330.66016 0.567236
8331.50000 0.56964
8332.33984 0.572042
8333.16992 0.574442
8334.00977 0.576842
8334.83984 0.579226
8335.69043 0.581637
8336.53027 0.584042
8337.36035 0.586421
8338.20020 0.588812
8339.04004 0.591198
8339.87012 0.593584
8340.70996 0.596164
8341.54980 0.598777
8342.38965 0.601392
8343.23047 0.604018
8344.07031 0.606628
8344.91016 0.609237
8345.74023 0.61183
8346.58008 0.614452
8347.41992 0.617045
8348.25977 0.619652
8349.09961 0.622259
8349.94043 0.624878
8350.78027 0.626429
8351.62012 0.627896
8352.45996 0.629361
8353.29980 0.630825
8354.13965 0.63229
8354.96973 0.633751
8355.80957 0.635216
8356.65039 0.636676
8357.50000 0.638147
8358.33008 0.6396
8359.17969 0.641068
8360.00977 0.642548
8360.84961 0.646176
8361.69043 0.649801
8362.53027 0.653425
8363.37012 0.657051
8364.21973 0.660691
8365.05957 0.664307
8365.90039 0.667927
8366.74023 0.671543
8367.58008 0.675154
8368.41016 0.678746
8369.25977 0.682377
8370.09961 0.685702
8370.94043 0.687017
8371.78027 0.688331
8372.62012 0.689641
8373.46973 0.690947
8374.30957 0.692254
8375.15039 0.693557
8375.99023 0.694861
8376.83008 0.696161
8377.66992 0.697462
8378.50977 0.698753
8379.34961 0.700058
8380.20020 0.701571
8381.04004 0.703718
8381.87988 0.705881
8382.71973 0.70804
8383.57031 0.7102
8384.41016 0.712362
8385.25000 0.714518
8386.09961 0.71669
8386.94043 0.718847
8387.78027 0.721003
8388.62012 0.72316
8389.46973 0.725315
8390.30957 0.727265
8391.15039 0.728855
8392.00000 0.730462
8392.83984 0.732051
8393.67969 0.733657
8394.53027 0.735252
8395.37012 0.736849
8396.20996 0.738446
8397.05957 0.740041
8397.90039 0.741639
8398.74023 0.743235
8399.58984 0.74483
8400.44043 0.747222
8401.28027 0.750333
8402.12012 0.753424
8402.96973 0.756544
8403.80957 0.759625
8404.65039 0.762718
8405.50000 0.765811
8406.33984 0.7689
8407.19043 0.771985
8408.03027 0.775081
8408.87988 0.778155
8409.73047 0.781226
8410.57031 0.783034
8411.41992 0.78423
8412.25977 0.785423
8413.09961 0.786618
8413.95020 0.787805
8414.79980 0.789002
8415.63965 0.790193
8416.49023 0.791381
8417.33008 0.792569
8418.17969 0.793756
8419.01953 0.794941
8419.87012 0.796124
8420.71973 0.795991
8421.55957 0.795615
8422.41016 0.795235
8423.25000 0.79486
8424.09961 0.794483
8424.95020 0.794108
8425.79980 0.79373
8426.63965 0.793356
8427.49023 0.792979
8428.33008 0.792602
8429.17969 0.792222
8430.03027 0.792001
8430.87988 0.795812
8431.73047 0.799616
8432.57031 0.803419
8433.41992 0.807214
8434.26953 0.811009
8435.11035 0.814776
8435.95996 0.818583
8436.80957 0.82238
8437.66016 0.826133
8438.50000 0.829904
8439.34961 0.833674
8440.20020 0.836734
8441.04980 0.837529
8441.90039 0.838326
8442.74023 0.839121
8443.58984 0.839915
8444.44043 0.840711
8445.29004 0.841502
8446.13965 0.842289
8446.99023 0.843086
8447.83008 0.84387
8448.69043 0.844664
8449.53027 0.84545
8450.37988 0.846024
8451.24023 0.846335
8452.08008 0.846643
8452.92969 0.846952
8453.78027 0.847261
8454.62988 0.847568
8455.48047 0.847876
8456.33008 0.848183
8457.17969 0.84849
8458.01953 0.848792
8458.87988 0.849098
8459.73047 0.849404
8460.58008 0.851041
8461.42969 0.853303
8462.28027 0.855558
8463.12988 0.857814
8463.98047 0.860072
8464.83008 0.862321
8465.69043 0.864584
8466.54004 0.866832
8467.38965 0.869077
8468.24023 0.87132
8469.08008 0.87355
8469.94043 0.8758
8470.78027 0.877311
8471.63965 0.878777
8472.49023 0.880236
8473.33984 0.881704
8474.19043 0.883164
8475.04980 0.884624
8475.90039 0.886078
8476.75000 0.887535
8477.59961 0.888989
8478.45020 0.89044
8479.30957 0.891892
8480.16016 0.893318
8481.00977 0.894638
8481.86035 0.895947
8482.71973 0.897265
8483.55957 0.898569
8484.41992 0.899881
8485.26953 0.901194
8486.12012 0.902505
8486.98047 0.903814
8487.83008 0.905132
8488.67969 0.906441
8489.54004 0.90775
8490.38965 0.908735
8491.24023 0.909332
8492.08984 0.909925
8492.95020 0.910521
8493.79980 0.911112
8494.66016 0.911709
8495.50977 0.912299
8496.36035 0.912887
8497.21973 0.913476
8498.07031 0.914061
8498.91992 0.914646
8499.78027 0.915228
8500.62988 0.916046
8501.49023 0.916943
8502.33984 0.917843
8503.19043 0.918732
8504.04980 0.919633
8504.90039 0.92052
8505.75977 0.921418
8506.61035 0.9223
8507.46973 0.923189
8508.32031 0.924077
8509.17969 0.924966
8510.04004 0.925879
8510.88965 0.927277
8511.75000 0.928677
8512.59961 0.930076
8513.45996 0.931474
8514.30957 0.932868
8515.16016 0.934257
8516.01953 0.935659
8516.87988 0.937051
8517.73047 0.938446
8518.58984 0.939836
8519.44043 0.941224
8520.29980 0.942339
8521.16016 0.942945
8522.00977 0.943551
8522.87012 0.944155
8523.73047 0.944761
8524.58984 0.945367
8525.44043 0.945969
8526.29980 0.946568
8527.16016 0.947172
8528.00977 0.947767
8528.86035 0.948367
8529.71973 0.948967
8530.58008 0.949624
8531.44043 0.950316
8532.29980 0.951003
8533.16016 0.951684
8534.00977 0.952366
8534.87012 0.953046
8535.73047 0.953726
8536.58008 0.954403
8537.44043 0.955081
8538.29980 0.955754
8539.16016 0.956432
8540.01953 0.957099
8540.87988 0.957623
8541.73047 0.958141
8542.58984 0.958661
8543.45020 0.95918
8544.30957 0.959698
8545.16992 0.960214
8546.03027 0.960735
8546.88965 0.96125
8547.75000 0.961765
8548.59961 0.96228
8549.45996 0.962792
8550.32031 0.963124
8551.17969 0.963143
8552.04004 0.963159
8552.90039 0.963178
8553.75977 0.963197
8554.62012 0.963218
8555.48047 0.963235
8556.33984 0.963251
8557.20020 0.963267
8558.05957 0.963282
8558.91992 0.963298
8559.78027 0.963313
8560.63965 0.963963
8561.50000 0.96484
8562.36035 0.965707
8563.21973 0.966576
8564.08008 0.967444
8564.94043 0.968314
8565.79980 0.96918
8566.66016 0.970047
8567.51953 0.970913
8568.38965 0.971781
8569.25000 0.972645
8570.11035 0.973449
8570.95996 0.97384
8571.83008 0.974234
8572.69043 0.974625
8573.54980 0.975019
8574.41016 0.975405
8575.26953 0.975794
8576.13965 0.976186
8577.00000 0.976573
8577.86035 0.976962
8578.71973 0.977347
8579.58008 0.977733
8580.44043 0.977998
8581.30957 0.97815
8582.16992 0.978303
8583.04004 0.978457
8583.90039 0.978604
8584.75977 0.978756
8585.62012 0.978905
8586.48047 0.979053
8587.33984 0.979201
8588.20996 0.979347
8589.07031 0.979495
8589.92969 0.979641
8590.79980 0.979827
8591.66016 0.980011
8592.53027 0.980195
8593.38965 0.980379
8594.25000 0.980562
8595.12012 0.980747
8595.98047 0.980923
8596.83984 0.981107
8597.70996 0.981288
8598.57031 0.981469
8599.44043 0.981649
8600.29980 0.982326
8601.16016 0.98394
8602.03027 0.985554
8602.88965 0.987163
8603.75977 0.988775
8604.62012 0.990384
8605.49023 0.992
8606.34961 0.993608
8607.20996 0.995201
8608.08008 0.996801
8608.94043 0.9984
8609.80957 1.0
8610.66992 0.999663
8611.54004 0.998776
8612.41016 0.997883
8613.26953 0.996996
8614.13965 0.99611
8615.00000 0.995225
8615.87012 0.994338
8616.74023 0.99345
8617.59961 0.992568
8618.46973 0.991676
8619.33008 0.990795
8620.20020 0.990239
8621.07031 0.990801
8621.92969 0.991365
8622.79980 0.991923
8623.66016 0.992482
8624.53027 0.993038
8625.40039 0.993594
8626.25977 0.99415
8627.12988 0.994706
8628.00000 0.995264
8628.86035 0.995812
8629.74023 0.996363
8630.59961 0.995374
8631.46973 0.993696
8632.33008 0.992018
8633.20020 0.990342
8634.07031 0.988666
8634.94043 0.986982
8635.80957 0.985307
8636.66992 0.983635
8637.54004 0.981963
8638.41016 0.980293
8639.28027 0.978621
8640.15039 0.977454
8641.00977 0.978762
8641.87988 0.980085
8642.75000 0.981406
8643.62012 0.982711
8644.49023 0.984021
8645.34961 0.985331
8646.21973 0.986639
8647.08984 0.987946
8647.95996 0.989254
8648.83008 0.990557
8649.70020 0.991868
8650.57031 0.992098
8651.44043 0.991772
8652.30957 0.991448
8653.17969 0.991121
8654.04980 0.990796
8654.91016 0.990468
8655.78027 0.990142
8656.65039 0.989817
8657.53027 0.989489
8658.40039 0.98916
8659.26953 0.988831
8660.13965 0.988619
8661.00977 0.988999
8661.87988 0.989376
8662.74023 0.989752
8663.62012 0.990132
8664.49023 0.990511
8665.36035 0.990885
8666.23047 0.99126
8667.09961 0.991637
8667.96973 0.992011
8668.83984 0.992384
8669.70996 0.992757
8670.58008 0.992555
8671.45020 0.992067
8672.33008 0.991575
8673.20020 0.991088
8674.07031 0.990601
8674.94043 0.990115
8675.80957 0.989627
8676.69043 0.989137
8677.55957 0.988653
8678.42969 0.988166
8679.29980 0.987679
8680.17969 0.987346
8681.04980 0.987641
8681.91992 0.987937
8682.79004 0.988231
8683.66992 0.988524
8684.54004 0.988818
8685.41016 0.989111
8686.28027 0.989401
8687.16016 0.989694
8688.03027 0.989987
8688.90039 0.990271
8689.76953 0.99056
8690.65039 0.990419
8691.51953 0.990124
8692.38965 0.989829
8693.26953 0.989536
8694.13965 0.989242
8695.01953 0.988948
8695.88965 0.988654
8696.76953 0.988354
8697.63965 0.988059
8698.50977 0.987765
8699.37988 0.987472
8700.25977 0.987319
8701.12988 0.987501
8702.00977 0.987684
8702.87988 0.987867
8703.75977 0.988047
8704.62988 0.988228
8705.50977 0.988407
8706.37988 0.988586
8707.25977 0.988764
8708.12988 0.98894
8709.00977 0.989114
8709.88965 0.989291
8710.75977 0.98884
8711.63965 0.988288
8712.50977 0.98774
8713.37988 0.98719
8714.25977 0.986643
8715.12988 0.986095
8716.00977 0.985544
8716.88965 0.984991
8717.75977 0.98444
8718.63965 0.983893
8719.51953 0.983342
8720.38965 0.982948
8721.25977 0.982751
8722.15039 0.982553
8723.01953 0.982355
8723.90039 0.982154
8724.76953 0.981955
8725.65039 0.981755
8726.53027 0.981554
8727.40039 0.981353
8728.28027 0.981152
8729.16016 0.980951
8730.03027 0.980743
8730.91016 0.980317
8731.79004 0.979897
8732.66992 0.979478
8733.54980 0.979056
8734.41992 0.978637
8735.29980 0.978213
8736.17969 0.977794
8737.04980 0.977372
8737.92969 0.976952
8738.80957 0.97653
8739.69043 0.976107
8740.57031 0.976292
8741.45020 0.976803
8742.33008 0.977313
8743.20020 0.977825
8744.08008 0.978335
8744.95996 0.97884
8745.83984 0.979351
8746.70996 0.979854
8747.59961 0.980362
8748.48047 0.980866
8749.34961 0.98137
8750.23047 0.98151
8751.11035 0.980642
8751.99023 0.979777
8752.87012 0.97891
8753.75000 0.978042
8754.63965 0.977174
8755.51953 0.976307
8756.40039 0.975442
8757.26953 0.974578
8758.15039 0.973716
8759.03027 0.972851
8759.91016 0.971986
8760.79004 0.972025
8761.66992 0.972163
8762.55957 0.972303
8763.44043 0.972441
8764.32031 0.972575
8765.20020 0.972708
8766.08008 0.972845
8766.95996 0.972982
8767.83984 0.973118
8768.71973 0.973249
8769.59961 0.973382
8770.49023 0.973104
8771.36035 0.972493
8772.24023 0.971876
8773.12012 0.971261
8774.00977 0.970647
8774.88965 0.970031
8775.76953 0.969417
8776.65039 0.968801
8777.54004 0.968183
8778.41992 0.967567
8779.29980 0.966953
8780.17969 0.966443
8781.07031 0.966326
8781.94043 0.966208
8782.83008 0.966091
8783.70996 0.965969
8784.59961 0.965848
8785.48047 0.965728
8786.36035 0.965609
8787.24023 0.96549
8788.12988 0.96537
8789.00977 0.965246
8789.88965 0.965128
8790.76953 0.964873
8791.66016 0.964603
8792.54980 0.964331
8793.41992 0.964062
8794.30957 0.96379
8795.19043 0.963522
8796.08008 0.963251
8796.95996 0.962978
8797.83984 0.962705
8798.73047 0.962433
8799.62012 0.962159
8800.50000 0.961714
8801.38965 0.961135
8802.26953 0.960557
8803.15039 0.959976
8804.03027 0.959402
8804.91992 0.958816
8805.79980 0.95824
8806.69043 0.957661
8807.58008 0.957078
8808.45996 0.956497
8809.34961 0.955917
8810.23047 0.95545
8811.12012 0.955294
8812.00000 0.95514
8812.88965 0.954981
8813.76953 0.954824
8814.65039 0.954669
8815.54004 0.954509
8816.42969 0.95435
8817.30957 0.954193
8818.20020 0.954035
8819.08984 0.953876
8819.96973 0.953716
8820.86035 0.952507
8821.75000 0.951266
8822.63965 0.950018
8823.51953 0.948777
8824.41016 0.947539
8825.29980 0.946301
8826.17969 0.945062
8827.07031 0.943827
8827.95020 0.942597
8828.83984 0.941356
8829.73047 0.940127
8830.62012 0.939541
8831.50000 0.939249
8832.38965 0.938954
8833.28027 0.938661
8834.16992 0.938369
8835.04980 0.938072
8835.94043 0.93778
8836.83008 0.937486
8837.71973 0.937188
8838.61035 0.936891
8839.49023 0.936597
8840.38965 0.936631
8841.26953 0.937088
8842.16016 0.937545
8843.04980 0.938002
8843.92969 0.93846
8844.82031 0.938915
8845.71973 0.939371
8846.59961 0.939822
8847.49023 0.940273
8848.37988 0.940725
8849.26953 0.941176
8850.16016 0.941459
8851.04980 0.940989
8851.92969 0.940523
8852.83008 0.940051
8853.71973 0.939582
8854.61035 0.939113
8855.50000 0.938644
8856.38965 0.938175
8857.28027 0.937705
8858.16992 0.937233
8859.05957 0.936763
8859.95020 0.936288
8860.83984 0.935875
8861.73047 0.93547
8862.62012 0.935058
8863.50977 0.934649
8864.40039 0.934237
8865.29004 0.93383
8866.17969 0.933424
8867.07031 0.933012
8867.96973 0.932596
8868.86035 0.932186
8869.75000 0.931772
8870.63965 0.93135
8871.53027 0.930921
8872.41992 0.930492
8873.30957 0.930063
8874.20020 0.929635
8875.09961 0.929203
8875.99023 0.928772
8876.87988 0.928344
8877.76953 0.927915
8878.66016 0.927484
8879.55957 0.927056
8880.45020 0.926645
8881.33984 0.926251
8882.23047 0.925858
8883.12012 0.925464
8884.01953 0.92507
8884.91016 0.924673
8885.79980 0.92428
8886.70020 0.923883
8887.58984 0.923493
8888.49023 0.923097
8889.37012 0.922705
8890.26953 0.922327
8891.16016 0.921989
8892.05957 0.921655
8892.95020 0.92132
8893.83984 0.920985
8894.74023 0.92065
8895.62988 0.920314
8896.51953 0.919978
8897.41992 0.919641
8898.30957 0.919304
8899.20996 0.918965
8900.11035 0.9186
8901.00000 0.91807
8901.88965 0.917544
8902.78027 0.91701
8903.67969 0.916476
8904.57031 0.915941
8905.46973 0.915409
8906.37012 0.914875
8907.25977 0.914342
8908.16016 0.913809
8909.04980 0.913276
8909.94043 0.912744
8910.83984 0.91189
8911.73047 0.911023
8912.62988 0.910153
8913.51953 0.90928
8914.41992 0.908402
8915.32031 0.90753
8916.21973 0.906658
8917.11035 0.905788
8918.00977 0.904917
8918.90039 0.904047
8919.79980 0.903179
8920.69043 0.902931
8921.58984 0.902861
8922.49023 0.902793
8923.37988 0.902726
8924.28027 0.902654
8925.17969 0.902583
8926.07031 0.902514
8926.96973 0.902442
8927.87012 0.902369
8928.75977 0.902297
8929.66992 0.902224
8930.55957 0.902054
8931.45996 0.901827
8932.36035 0.9016
8933.25977 0.901374
8934.15039 0.90115
8935.04980 0.900921
8935.94043 0.90069
8936.83984 0.900463
8937.74023 0.900233
8938.63965 0.900005
8939.54004 0.899775
8940.44043 0.899378
8941.33984 0.898805
8942.23047 0.898234
8943.12988 0.89766
8944.03027 0.897086
8944.92969 0.896515
8945.83008 0.895946
8946.73047 0.895371
8947.62988 0.894802
8948.53027 0.894228
8949.41992 0.89366
8950.32031 0.893078
8951.21973 0.892479
8952.12012 0.891884
8953.03027 0.891283
8953.92969 0.89069
8954.83008 0.890092
8955.73047 0.889497
8956.62012 0.888899
8957.51953 0.888303
8958.41992 0.887708
8959.32031 0.887107
8960.23047 0.886582
8961.12012 0.886267
8962.01953 0.885955
8962.92969 0.885641
8963.83008 0.885326
8964.73047 0.885013
8965.62988 0.884698
8966.53027 0.884382
8967.42969 0.884066
8968.33008 0.883748
8969.24023 0.883432
8970.12988 0.883063
8971.04004 0.882382
8971.92969 0.881708
8972.83984 0.881028
8973.74023 0.88035
8974.63965 0.879671
8975.54980 0.87899
8976.45020 0.878312
8977.34961 0.877633
8978.25000 0.876955
8979.15039 0.876277
8980.05957 0.875636
8980.95996 0.875516
8981.86035 0.875401
8982.75977 0.875284
8983.66992 0.875166
8984.57031 0.875047
8985.46973 0.874928
8986.37012 0.87481
8987.26953 0.87469
8988.17969 0.874572
8989.08008 0.874451
8989.98047 0.874325
8990.88965 0.873868
8991.79980 0.8734
8992.70020 0.872932
8993.59961 0.872464
8994.50000 0.872001
8995.41016 0.871531
8996.30957 0.871065
8997.20996 0.870598
8998.12012 0.870132
8999.01953 0.869663
8999.92969 0.869195
9000.83008 0.868747
9001.74023 0.868304
9002.63965 0.867861
9003.54980 0.867416
9004.45020 0.866972
9005.36035 0.866527
9006.25977 0.866078
9007.16992 0.865632
9008.07031 0.865187
9008.98047 0.864741
9009.87988 0.864297
9010.79004 0.863459
9011.69043 0.862559
9012.59961 0.861662
9013.50000 0.860766
9014.41016 0.859865
9015.32031 0.858969
9016.23047 0.858073
9017.12012 0.857184
9018.04004 0.856281
9018.94043 0.85539
9019.84961 0.854493
9020.75000 0.854177
9021.66016 0.85398
9022.57031 0.853785
9023.46973 0.853588
9024.37988 0.853387
9025.29004 0.853189
9026.19043 0.852992
9027.09961 0.852791
9028.00977 0.852591
9028.91992 0.852391
9029.83008 0.852187
9030.73047 0.851521
9031.63965 0.850734
9032.54004 0.849956
9033.45020 0.849174
9034.36035 0.848392
9035.26953 0.847611
9036.16992 0.846829
9037.08008 0.846049
9038.00000 0.845263
9038.90039 0.844481
9039.80957 0.843698
9040.71973 0.843261
9041.62012 0.842917
9042.54004 0.842569
9043.44043 0.842226
9044.34961 0.841876
9045.25977 0.841525
9046.16992 0.841179
9047.08008 0.840832
9047.99023 0.840487
9048.90039 0.840137
9049.80957 0.839787
9050.71973 0.839232
9051.62012 0.83862
9052.53027 0.838009
9053.45020 0.837396
9054.36035 0.836786
9055.25977 0.83618
9056.17969 0.835564
9057.08008 0.834959
9057.99023 0.834349
9058.90039 0.833739
9059.80957 0.833126
9060.71973 0.832596
9061.63965 0.832085
9062.54980 0.831577
9063.45996 0.831068
9064.37012 0.830561
9065.28027 0.830056
9066.19043 0.829551
9067.09961 0.829038
9068.00977 0.828528
9068.91992 0.828015
9069.83008 0.827506
9070.75000 0.827085
9071.66016 0.826687
9072.57031 0.826287
9073.48047 0.825886
9074.38965 0.825485
9075.29980 0.825082
9076.21973 0.824678
9077.12988 0.824276
9078.04004 0.823873
9078.95996 0.823467
9079.86035 0.823066
9080.78027 0.822728
9081.69043 0.822407
9082.59961 0.822083
9083.50977 0.821756
9084.42969 0.821426
9085.33984 0.821097
9086.25977 0.82077
9087.16992 0.820443
9088.08008 0.820116
9089.00000 0.819785
9089.91016 0.819456
9090.82031 0.818589
9091.74023 0.81765
9092.65039 0.816711
9093.55957 0.815783
9094.48047 0.814849
9095.38965 0.813915
9096.29980 0.812984
9097.21973 0.812054
9098.12988 0.811121
9099.04980 0.810189
9099.95996 0.809254
9100.87988 0.809148
9101.79004 0.809075
9102.70020 0.809002
9103.62012 0.808928
9104.53027 0.808851
9105.45020 0.808772
9106.36035 0.808697
9107.28027 0.808621
9108.20020 0.808545
9109.11035 0.808467
9110.03027 0.80837
9110.94043 0.807674
9111.86035 0.806981
9112.76953 0.806286
9113.69043 0.805593
9114.59961 0.8049
9115.51953 0.804202
9116.42969 0.803512
9117.34961 0.802816
9118.26953 0.80212
9119.17969 0.801427
9120.09961 0.800774
9121.01953 0.800465
9121.92969 0.800161
9122.84961 0.799849
9123.76953 0.799537
9124.69043 0.799228
9125.59961 0.798917
9126.51953 0.798606
9127.42969 0.798295
9128.34961 0.797979
9129.26953 0.79767
9130.17969 0.797236
9131.09961 0.796322
9132.01953 0.795402
9132.94043 0.794486
9133.86035 0.793573
9134.76953 0.792656
9135.69043 0.791742
9136.61035 0.79083
9137.53027 0.789916
9138.45020 0.789002
9139.36035 0.788091
9140.29004 0.787367
9141.20020 0.787068
9142.12012 0.786768
9143.04004 0.786465
9143.95996 0.786164
9144.87988 0.785863
9145.79980 0.785562
9146.70996 0.785257
9147.63965 0.784952
9148.55957 0.784651
9149.48047 0.784347
9150.40039 0.783895
9151.30957 0.783246
9152.23047 0.7826
9153.15039 0.781947
9154.07031 0.781298
9154.99023 0.780646
9155.91016 0.779995
9156.83008 0.779348
9157.75000 0.7787
9158.66992 0.778045
9159.58984 0.777394
9160.50977 0.777293
9161.42969 0.777626
9162.34961 0.777957
9163.28027 0.778287
9164.19043 0.778613
9165.12012 0.778942
9166.04004 0.779265
9166.95996 0.779591
9167.87988 0.779915
9168.79980 0.780235
9169.71973 0.780558
9170.65039 0.779535
9171.57031 0.77794
9172.49023 0.776348
9173.41016 0.774754
9174.33008 0.773161
9175.25000 0.771582
9176.17969 0.769987
9177.08984 0.768408
9178.01953 0.76681
9178.94043 0.765228
9179.86035 0.763645
9180.79004 0.763123
9181.70996 0.762783
9182.62988 0.762441
9183.54980 0.762099
9184.48047 0.761756
9185.40039 0.761413
9186.33008 0.761069
9187.25000 0.760724
9188.16992 0.76038
9189.08984 0.760038
9190.01953 0.759686
9190.94043 0.75917
9191.86035 0.758647
9192.78027 0.758124
9193.70996 0.757601
9194.63965 0.757077
9195.55957 0.756556
9196.48047 0.756032
9197.41016 0.755507
9198.33008 0.754983
9199.25977 0.75446
9200.17969 0.753993
9201.09961 0.753752
9202.01953 0.753516
9202.95020 0.753279
9203.87988 0.753039
9204.79980 0.7528
9205.73047 0.752562
9206.65039 0.752318
9207.58008 0.752076
9208.50000 0.751836
9209.42969 0.751594
9210.36035 0.751067
9211.28027 0.750093
9212.20996 0.74912
9213.13965 0.748151
9214.05957 0.747181
9214.98047 0.746212
9215.91016 0.74524
9216.83008 0.744272
9217.75977 0.7433
9218.69043 0.742323
9219.62012 0.741356
9220.54004 0.740873
9221.46973 0.740731
9222.40039 0.74059
9223.32031 0.740448
9224.25000 0.740307
9225.16992 0.740168
9226.09961 0.740024
9227.03027 0.739876
9227.95996 0.739733
9228.87988 0.739593
9229.80957 0.739446
9230.74023 0.738871
9231.66992 0.73819
9232.58984 0.73751
9233.51953 0.736828
9234.45020 0.736142
9235.37988 0.735461
9236.30957 0.734778
9237.23047 0.734098
9238.16992 0.733415
9239.08984 0.732737
9240.01953 0.732063
9240.94043 0.731719
9241.87988 0.731372
9242.80957 0.731032
9243.74023 0.730687
9244.66016 0.730344
9245.58984 0.730001
9246.51953 0.729657
9247.45020 0.729313
9248.37988 0.728966
9249.30957 0.728618
9250.24023 0.728149
9251.16992 0.727355
9252.09961 0.726549
9253.03027 0.725748
9253.95996 0.724953
9254.88965 0.72415
9255.82031 0.72335
9256.75000 0.722551
9257.67969 0.721748
9258.61035 0.720945
9259.54004 0.720145
9260.46973 0.719705
9261.40039 0.719616
9262.33008 0.719529
9263.25977 0.71944
9264.19043 0.719351
9265.12012 0.719261
9266.05957 0.719169
9266.99023 0.719077
9267.91992 0.718981
9268.84961 0.718886
9269.78027 0.718791
9270.70996 0.718372
9271.63965 0.717854
9272.57031 0.717334
9273.50000 0.716817
9274.44043 0.716295
9275.37012 0.715773
9276.29980 0.715255
9277.23047 0.714732
9278.16016 0.714213
9279.09961 0.713691
9280.03027 0.713173
9280.95996 0.712667
9281.90039 0.712155
9282.83008 0.711651
9283.75977 0.711145
9284.70020 0.710637
9285.62988 0.710131
9286.55957 0.709624
9287.49023 0.70912
9288.42969 0.70861
9289.36035 0.708103
9290.29980 0.70761
9291.23047 0.707162
9292.16016 0.706713
9293.09961 0.706267
9294.03027 0.705814
9294.95996 0.705364
9295.90039 0.704915
9296.83008 0.704464
9297.76953 0.704015
9298.70020 0.703563
9299.62988 0.70311
9300.57031 0.702557
9301.50000 0.701944
9302.44043 0.701328
9303.37012 0.700715
9304.30957 0.7001
9305.24023 0.699485
9306.17969 0.698864
9307.11035 0.698249
9308.04980 0.697634
9308.99023 0.697014
9309.91992 0.6964
9310.86035 0.695568
9311.79004 0.694718
9312.71973 0.69387
9313.66016 0.693013
9314.59961 0.692157
9315.53027 0.691311
9316.46973 0.690459
9317.41016 0.689607
9318.33984 0.688758
9319.28027 0.687906
9320.21973 0.687169
9321.15039 0.686807
9322.08984 0.686444
9323.03027 0.686082
9323.96973 0.68572
9324.90039 0.68536
9325.83984 0.684994
9326.76953 0.684633
9327.70996 0.68427
9328.65039 0.683908
9329.58008 0.683543
9330.51953 0.683182
9331.45996 0.682827
9332.40039 0.682477
9333.33984 0.682128
9334.26953 0.681775
9335.20996 0.681422
9336.15039 0.681067
9337.08984 0.680708
9338.03027 0.680352
9338.96973 0.679999
9339.90039 0.679645
9340.83984 0.679014
9341.78027 0.678353
9342.71973 0.677693
9343.66016 0.677031
9344.59961 0.676367
9345.53027 0.675706
9346.48047 0.675043
9347.41992 0.67438
9348.36035 0.673716
9349.29980 0.673053
9350.23047 0.672407
9351.17969 0.671772
9352.11035 0.671152
9353.04980 0.670518
9353.99023 0.66989
9354.92969 0.669259
9355.87012 0.668627
9356.80957 0.667999
9357.75000 0.66737
9358.69043 0.66674
9359.62988 0.66611
9360.57031 0.665616
9361.50977 0.665212
9362.45996 0.664802
9363.40039 0.664391
9364.33984 0.663983
9365.28027 0.663575
9366.21973 0.663166
9367.16016 0.662757
9368.09961 0.662347
9369.04004 0.661934
9369.99023 0.661523
9370.92969 0.660815
9371.87012 0.660101
9372.80957 0.659391
9373.75000 0.658677
9374.70020 0.657969
9375.62988 0.657259
9376.58008 0.656548
9377.51953 0.655837
9378.45996 0.655122
9379.41016 0.654412
9380.34961 0.653793
9381.29004 0.653337
9382.23047 0.652881
9383.17969 0.652422
9384.12012 0.651968
9385.05957 0.651505
9386.00000 0.651048
9386.95020 0.650591
9387.88965 0.650131
9388.83984 0.649668
9389.78027 0.64921
9390.71973 0.648375
9391.66016 0.647422
9392.61035 0.646468
9393.54980 0.645515
9394.50000 0.644558
9395.44043 0.643604
9396.38965 0.642654
9397.33008 0.641704
9398.28027 0.64075
9399.21973 0.639799
9400.16992 0.638932
9401.09961 0.638454
9402.04980 0.63797
9403.00000 0.637487
9403.94043 0.637004
9404.88965 0.63652
9405.83008 0.636037
9406.78027 0.635553
9407.71973 0.635066
9408.66992 0.63458
9409.61035 0.634093
9410.55957 0.633318
9411.50000 0.632352
9412.45020 0.631373
9413.40039 0.63041
9414.34961 0.629437
9415.29004 0.628472
9416.23047 0.627504
9417.17969 0.626537
9418.12012 0.625569
9419.08008 0.624597
9420.01953 0.623641
9420.96973 0.623097
9421.91992 0.622551
9422.86035 0.622004
9423.80957 0.621459
9424.75000 0.620914
9425.70020 0.620365
9426.65039 0.619819
9427.59961 0.619268
9428.54004 0.618722
9429.49023 0.618172
9430.44043 0.61753
9431.38965 0.616785
9432.33008 0.616038
9433.28027 0.615292
9434.23047 0.614545
9435.17969 0.613798
9436.12988 0.613049
9437.07031 0.612304
9438.03027 0.611554
9438.96973 0.610812
9439.91992 0.610067
9440.87012 0.609451
9441.80957 0.60885
9442.76953 0.608247
9443.71973 0.607645
9444.66992 0.60704
9445.61035 0.606439
9446.55957 0.605834
9447.50977 0.60523
9448.45996 0.604629
9449.41016 0.604025
9450.34961 0.603274
9451.30957 0.602266
9452.25977 0.601262
9453.20996 0.600264
9454.16016 0.599262
9455.11035 0.598264
9456.05957 0.597264
9457.00977 0.596267
9457.95996 0.595263
9458.91016 0.594273
9459.86035 0.59327
9460.80957 0.592599
9461.76953 0.59198
9462.70996 0.591368
9463.66992 0.59075
9464.61035 0.590135
9465.55957 0.589517
9466.50977 0.5889
9467.46973 0.588279
9468.41992 0.58766
9469.37012 0.587041
9470.32031 0.586405
9471.26953 0.585731
9472.23047 0.585053
9473.17969 0.584374
9474.12988 0.5837
9475.08008 0.583022
9476.04004 0.582343
9476.99023 0.581671
9477.94043 0.580991
9478.88965 0.580318
9479.83984 0.579638
9480.79980 0.578956
9481.75000 0.578267
9482.70020 0.577582
9483.66016 0.576891
9484.61035 0.576203
9485.55957 0.575515
9486.51953 0.574828
9487.46973 0.574142
9488.41992 0.573459
9489.37988 0.572767
9490.33008 0.572013
9491.28027 0.571123
9492.24023 0.570229
9493.19043 0.56934
9494.15039 0.568449
9495.09961 0.567559
9496.04980 0.566675
9497.00977 0.565786
9497.95996 0.564898
9498.91992 0.564012
9499.87988 0.563118
9500.82031 0.562245
9501.78027 0.561361
9502.73047 0.560484
9503.69043 0.559607
9504.63965 0.558729
9505.59961 0.557854
9506.54980 0.556975
9507.50977 0.556095
9508.46973 0.555216
9509.41992 0.554341
9510.37988 0.553472
9511.33008 0.552615
9512.29004 0.551753
9513.25000 0.550895
9514.20020 0.55004
9515.15039 0.549181
9516.11035 0.548319
9517.07031 0.547461
9518.01953 0.546606
9518.98047 0.545746
9519.94043 0.544896
9520.90039 0.544013
9521.84961 0.543132
9522.80957 0.542251
9523.75977 0.541372
9524.73047 0.540494
9525.67969 0.539615
9526.63965 0.538742
9527.59961 0.537859
9528.54980 0.536989
9529.50977 0.536114
9530.45996 0.535247
9531.41992 0.534389
9532.37988 0.533533
9533.33984 0.532672
9534.29980 0.531821
9535.25977 0.530966
9536.21973 0.530114
9537.16992 0.529259
9538.12988 0.528409
9539.08984 0.527549
9540.04004 0.526719
9541.00977 0.526142
9541.96973 0.52558
9542.91992 0.52501
9543.87988 0.52444
9544.83984 0.523873
9545.79980 0.523303
9546.75977 0.522733
9547.71973 0.522165
9548.67969 0.521593
9549.63965 0.521017
9550.59961 0.520473
9551.55957 0.519943
9552.51953 0.519416
9553.48047 0.518883
9554.44043 0.518349
9555.40039 0.517817
9556.36035 0.517284
9557.32031 0.516747
9558.28027 0.516214
9559.24023 0.515679
9560.20020 0.515134
9561.16016 0.514575
9562.12012 0.514021
9563.08008 0.51346
9564.04004 0.512904
9565.00977 0.512341
9565.96973 0.51178
9566.92969 0.511214
9567.88965 0.510657
9568.84961 0.510093
9569.80957 0.509534
9570.76953 0.508975
9571.73047 0.508427
9572.70020 0.507874
9573.66016 0.507318
9574.62012 0.506764
9575.58984 0.506213
9576.54980 0.50566
9577.50977 0.505106
9578.46973 0.504555
9579.42969 0.503997
9580.38965 0.503334
9581.34961 0.502513
9582.32031 0.501686
9583.29004 0.500863
9584.25000 0.500046
9585.20996 0.499225
9586.16992 0.498402
9587.13965 0.497581
9588.09961 0.496764
9589.05957 0.495943
9590.01953 0.49513
9590.99023 0.494375
9591.95020 0.493628
9592.91992 0.492877
9593.87988 0.492126
9594.84961 0.491377
9595.80957 0.490627
9596.76953 0.489879
9597.74023 0.489129
9598.70996 0.488375
9599.66992 0.487627
9600.63965 0.486885
9601.59961 0.486151
9602.57031 0.485421
9603.53027 0.484687
9604.49023 0.48396
9605.45020 0.483227
9606.41992 0.482492
9607.38965 0.481759
9608.36035 0.481027
9609.32031 0.480295
9610.29004 0.479555
9611.25000 0.478797
9612.21973 0.478037
9613.17969 0.477281
9614.15039 0.476519
9615.12012 0.475759
9616.08984 0.475
9617.04980 0.474249
9618.00977 0.47349
9618.98047 0.472733
9619.95020 0.471975
9620.91016 0.471298
9621.87988 0.470619
9622.84961 0.469945
9623.82031 0.469264
9624.78027 0.468587
9625.75000 0.467913
9626.71973 0.467236
9627.69043 0.466559
9628.65039 0.46589
9629.62012 0.465209
9630.58008 0.464553
9631.55957 0.463902
9632.51953 0.463254
9633.49023 0.462609
9634.45996 0.461961
9635.42969 0.461313
9636.40039 0.460668
9637.36035 0.46002
9638.33008 0.459371
9639.29980 0.458725
9640.26953 0.45806
9641.24023 0.457378
9642.20996 0.456701
9643.16992 0.456017
9644.13965 0.455334
9645.11035 0.454654
9646.08008 0.453968
9647.04980 0.453287
9648.01953 0.452603
9648.99023 0.451917
9649.95996 0.451234
9650.92969 0.45059
9651.90039 0.449952
9652.87012 0.449315
9653.83984 0.448674
9654.80957 0.448038
9655.78027 0.4474
9656.75000 0.446753
9657.71973 0.446113
9658.69043 0.445475
9659.66016 0.444832
9660.62988 0.444106
9661.59961 0.44334
9662.58008 0.442574
9663.54980 0.441808
9664.51953 0.44104
9665.49023 0.440269
9666.45996 0.439506
9667.44043 0.43874
9668.41016 0.437976
9669.37012 0.437219
9670.33984 0.436454
9671.32031 0.435686
9672.29004 0.434923
9673.25977 0.434154
9674.24023 0.433387
9675.20996 0.432626
9676.17969 0.431861
9677.15039 0.431097
9678.12012 0.430332
9679.09961 0.429567
9680.07031 0.428807
9681.04004 0.428062
9682.00977 0.427299
9682.99023 0.426553
9683.95996 0.425802
9684.92969 0.425048
9685.91016 0.424296
9686.87988 0.423549
9687.84961 0.422795
9688.83008 0.422048
9689.80957 0.421291
9690.78027 0.42055
9691.75000 0.419813
9692.73047 0.419075
9693.69043 0.418341
9694.66992 0.417602
9695.63965 0.416866
9696.62012 0.416129
9697.58984 0.415393
9698.57031 0.414652
9699.54004 0.413915
9700.51953 0.413227
9701.49023 0.412582
9702.46973 0.411936
9703.44043 0.411291
9704.41992 0.410647
9705.38965 0.410003
9706.37012 0.409358
9707.33984 0.408711
9708.32031 0.408064
9709.29004 0.40742
9710.26953 0.406767
9711.24023 0.406101
9712.21973 0.405432
9713.20020 0.404763
9714.16992 0.404096
9715.15039 0.403422
9716.12988 0.402758
9717.09961 0.402085
9718.08008 0.40142
9719.05957 0.400751
9720.03027 0.400088
9721.00977 0.399431
9721.98047 0.398782
9722.95996 0.398124
9723.94043 0.397473
9724.91992 0.396817
9725.90039 0.396163
9726.87012 0.395511
9727.84961 0.394859
9728.83008 0.394203
9729.80957 0.393552
9730.78027 0.392891
9731.75977 0.392231
9732.74023 0.391578
9733.71973 0.39092
9734.69043 0.390262
9735.66992 0.389603
9736.65039 0.388944
9737.62988 0.388286
9738.59961 0.387627
9739.58008 0.386968
9740.57031 0.386276
9741.54980 0.385564
9742.51953 0.384852
9743.50000 0.384142
9744.48047 0.383428
9745.45996 0.382716
9746.44043 0.382008
9747.41992 0.381296
9748.40039 0.380582
9749.37988 0.379871
9750.36035 0.379163
9751.33984 0.378462
9752.32031 0.377761
9753.29980 0.377057
9754.28027 0.376351
9755.25977 0.375651
9756.24023 0.374951
9757.21973 0.374243
9758.20020 0.373541
9759.17969 0.372843
9760.16016 0.372142
9761.13965 0.371447
9762.12012 0.370746
9763.09961 0.37005
9764.08008 0.369352
9765.07031 0.368649
9766.04980 0.367951
9767.03027 0.367256
9768.00977 0.36656
9768.99023 0.365859
9769.98047 0.365162
9770.95996 0.36443
9771.94043 0.363696
9772.91016 0.362963
9773.90039 0.362229
9774.87988 0.361493
9775.86035 0.360759
9776.84961 0.360024
9777.83008 0.359291
9778.80957 0.358558
9779.79980 0.357828
9780.78027 0.357163
9781.76953 0.356522
9782.75000 0.355877
9783.73047 0.355238
9784.70996 0.354591
9785.69043 0.353953
9786.66992 0.35331
9787.66016 0.352667
9788.63965 0.352021
9789.62012 0.35138
9790.61035 0.350726
9791.59961 0.350067
9792.58008 0.34941
9793.57031 0.348753
9794.54980 0.348094
9795.53027 0.347437
9796.51953 0.346781
9797.50000 0.346128
9798.49023 0.345467
9799.46973 0.344807
9800.45020 0.344269
9801.44043 0.343873
9802.41992 0.343478
9803.41016 0.343082
9804.38965 0.342687
9805.37988 0.34229
9806.36035 0.341894
9807.34961 0.341495
9808.33984 0.341095
9809.33008 0.340696
9810.30957 0.340303
9811.29004 0.339911
9812.28027 0.339518
9813.25977 0.339126
9814.25000 0.338733
9815.23047 0.338341
9816.23047 0.337945
9817.20996 0.337551
9818.20020 0.337153
9819.17969 0.336762
9820.16992 0.336349
9821.16016 0.335852
9822.15039 0.335354
9823.12988 0.334857
9824.12012 0.334355
9825.09961 0.333859
9826.08984 0.333364
9827.08008 0.332865
9828.07031 0.332367
9829.05957 0.331866
9830.04004 0.331365
9831.03027 0.330862
9832.01953 0.330352
9833.00977 0.329841
9834.00000 0.329334
9834.99023 0.328822
9835.98047 0.328316
9836.95996 0.327812
9837.94043 0.327305
9838.92969 0.326793
9839.91992 0.326281
9840.91992 0.325768
9841.91016 0.325253
9842.90039 0.324735
9843.87988 0.324222
9844.87012 0.323706
9845.86035 0.323188
9846.84961 0.322672
9847.83984 0.322161
9848.83008 0.321642
9849.82031 0.321125
9850.80957 0.320617
9851.79980 0.320116
9852.79004 0.319614
9853.78027 0.31911
9854.76953 0.318603
9855.75977 0.318101
9856.75000 0.317596
9857.74023 0.317087
9858.73047 0.316581
9859.73047 0.316078
9860.71973 0.315623
9861.70996 0.315184
9862.70020 0.314748
9863.67969 0.31431
9864.66992 0.313871
9865.66016 0.313433
9866.66016 0.312991
9867.65039 0.312552
9868.63965 0.312112
9869.63965 0.31167
9870.62988 0.311234
9871.62012 0.310803
9872.61035 0.310372
9873.59961 0.309938
9874.58984 0.309503
9875.58984 0.309068
9876.58008 0.308637
9877.58008 0.308201
9878.55957 0.30777
9879.55957 0.307333
9880.54980 0.306882
9881.54004 0.306419
9882.53027 0.30595
9883.53027 0.305479
9884.51953 0.305014
9885.51953 0.304551
9886.50977 0.304084
9887.50000 0.303616
9888.50000 0.303147
9889.49023 0.302678
9890.48047 0.302241
9891.46973 0.301823
9892.46973 0.3014
9893.46973 0.300982
9894.45996 0.300561
9895.45020 0.300141
9896.45020 0.299723
9897.44043 0.299304
9898.44043 0.298885
9899.42969 0.298463
9900.42969 0.297992
9901.42969 0.29747
9902.41992 0.296943
9903.41016 0.296419
9904.41016 0.295895
9905.40039 0.29537
9906.40039 0.294844
9907.38965 0.294319
9908.38965 0.293794
9909.38965 0.293266
9910.37988 0.292748
9911.37988 0.292245
9912.37012 0.291743
9913.37012 0.29124
9914.36035 0.290736
9915.36035 0.290234
9916.36035 0.28973
9917.36035 0.289226
9918.34961 0.288728
9919.34961 0.288222
9920.33984 0.287718
9921.33984 0.287213
9922.33984 0.286708
9923.33008 0.286206
9924.33008 0.285701
9925.33008 0.285197
9926.33008 0.284689
9927.33008 0.284182
9928.33008 0.283679
9929.32031 0.283174
9930.32031 0.282667
9931.30957 0.282149
9932.30957 0.281629
9933.30957 0.281109
9934.30957 0.280588
9935.30957 0.280066
9936.30957 0.279546
9937.30957 0.279029
9938.30957 0.278508
9939.29980 0.277985
9940.29980 0.277494
9941.29980 0.277065
9942.29980 0.276635
9943.29980 0.276207
9944.29980 0.275777
9945.29980 0.27535
9946.29980 0.274919
9947.29980 0.274487
9948.29004 0.274057
9949.29004 0.273623
9950.29004 0.273188
9951.29004 0.27274
9952.29980 0.272287
9953.29980 0.271838
9954.29980 0.271389
9955.29004 0.270938
9956.29980 0.270484
9957.29004 0.270036
9958.29004 0.269585
9959.29004 0.269133
9960.29980 0.268683
9961.29980 0.268242
9962.29980 0.2678
9963.29980 0.267358
9964.29980 0.266917
9965.30957 0.266475
9966.30957 0.266031
9967.30957 0.265588
9968.30957 0.265144
9969.32031 0.264698
9970.30957 0.264255
9971.30957 0.263805
9972.32031 0.263353
9973.32031 0.262903
9974.32031 0.262451
9975.32031 0.261998
9976.32031 0.261545
9977.33008 0.261089
9978.33008 0.260634
9979.33984 0.260182
9980.33984 0.259698
9981.33984 0.259161
9982.33984 0.258626
9983.34961 0.258082
9984.33984 0.257546
9985.34961 0.257008
9986.36035 0.256466
9987.36035 0.255927
9988.36035 0.255387
9989.37012 0.254845
9990.37012 0.254308
9991.37012 0.253777
9992.37988 0.253242
9993.37988 0.252711
9994.38965 0.252178
9995.40039 0.251643
9996.40039 0.251113
9997.40039 0.250583
9998.40039 0.250047
9999.41016 0.249514
10000.41992 0.249031
10001.41992 0.248624
10002.41992 0.248215
10003.42969 0.247804
10004.44043 0.247392
10005.44043 0.246984
10006.45020 0.246573
10007.45020 0.246166
10008.45996 0.245754
10009.45996 0.245347
10010.46973 0.244931
10011.46973 0.244516
10012.48047 0.244097
10013.49023 0.243677
10014.49023 0.243263
10015.50000 0.242843
10016.50000 0.242428
10017.50977 0.242013
10018.51953 0.241593
10019.51953 0.241179
10020.53027 0.2408
10021.54004 0.240459
10022.54004 0.240121
10023.55957 0.23978
10024.55957 0.239442
10025.57031 0.239099
10026.57031 0.238761
10027.58984 0.238418
10028.58984 0.238079
10029.59961 0.237736
10030.59961 0.23739
10031.62012 0.237036
10032.62012 0.236687
10033.62988 0.236332
10034.62988 0.235982
10035.65039 0.235627
10036.65039 0.235276
10037.66992 0.234921
10038.67969 0.234566
10039.67969 0.234215
10040.70020 0.23386
10041.70020 0.23351
10042.70996 0.233156
10043.71973 0.232806
10044.71973 0.232455
10045.74023 0.232101
10046.75000 0.231746
10047.75000 0.231394
10048.76953 0.231039
10049.76953 0.230687
10050.79004 0.230329
10051.79004 0.229974
10052.80957 0.229615
10053.80957 0.229259
10054.83008 0.2289
10055.83984 0.22854
10056.84961 0.228184
10057.84961 0.227827
10058.87012 0.227467
10059.87988 0.227109
10060.88965 0.226705
10061.90039 0.226298
10062.91016 0.225887
10063.92969 0.225476
10064.92969 0.225069
10065.95020 0.224658
10066.95996 0.224251
10067.96973 0.223839
10068.98047 0.223432
10069.99023 0.223025
10071.00000 0.222617
10072.00977 0.222214
10073.03027 0.221806
10074.04004 0.221398
10075.04980 0.220994
10076.07031 0.220586
10077.08008 0.220182
10078.08984 0.219774
10079.09961 0.21937
10080.12012 0.218961
10081.13965 0.218548
10082.13965 0.21814
10083.15039 0.217732
10084.16992 0.21732
10085.17969 0.216911
10086.20020 0.216498
10087.20020 0.21609
10088.21973 0.215677
10089.23047 0.215268
10090.25000 0.214857
10091.26953 0.214452
10092.28027 0.214052
10093.29980 0.213647
10094.30957 0.213246
10095.33008 0.212841
10096.33008 0.21244
10097.34961 0.212034
10098.36035 0.211633
10099.37988 0.211227
10100.38965 0.210837
10101.41016 0.210458
10102.41992 0.210084
10103.44043 0.209705
10104.45020 0.209331
10105.46973 0.208952
10106.48047 0.208576
10107.50000 0.208197
10108.53027 0.207817
10109.54004 0.207442
10110.55957 0.207074
10111.57031 0.206721
10112.58008 0.206367
10113.59961 0.20601
10114.61035 0.205656
10115.62988 0.205297
10116.65039 0.204939
10117.66016 0.204584
10118.69043 0.204225
10119.70020 0.203869
10120.71973 0.203497
10121.73047 0.203123
10122.75000 0.202746
10123.75977 0.202372
10124.79004 0.201993
10125.79980 0.201619
10126.82031 0.20124
10127.83008 0.200865
10128.86035 0.200486
10129.87012 0.200111
10130.88965 0.199743
10131.90039 0.19938
10132.92969 0.199013
10133.95020 0.198646
10134.95996 0.198282
10135.99023 0.197914
10137.00000 0.19755
10138.00977 0.197185
10139.04004 0.196816
10140.04980 0.196448
10141.07031 0.196011
10142.09961 0.195574
10143.11035 0.195142
10144.13965 0.194705
10145.15039 0.194273
10146.16992 0.193836
10147.19043 0.193403
10148.20996 0.192966
10149.23047 0.192534
10150.24023 0.192101
10151.26953 0.191661
10152.29004 0.191221
10153.30957 0.190786
10154.33008 0.190346
10155.34961 0.189911
10156.37012 0.189472
10157.38965 0.189036
10158.41016 0.188597
10159.44043 0.188157
10160.45996 0.187721
10161.48047 0.18728
10162.50000 0.186845
10163.51953 0.186404
10164.54004 0.185969
10165.54980 0.185533
10166.58008 0.185093
10167.59961 0.184657
10168.62988 0.184216
10169.65039 0.183776
10170.66992 0.183353
10171.70020 0.182932
10172.70996 0.182515
10173.74023 0.182094
10174.75977 0.181678
10175.78027 0.181256
10176.80957 0.180835
10177.83008 0.180417
10178.86035 0.179995
10179.87012 0.179579
10180.88965 0.179175
10181.91992 0.178769
10182.94043 0.178367
10183.96973 0.177961
10184.98047 0.177559
10186.00977 0.177153
10187.04004 0.176746
10188.05957 0.176343
10189.08984 0.175936
10190.11035 0.175534
10191.13965 0.17513
10192.15039 0.17473
10193.16992 0.174331
10194.20020 0.173926
10195.23047 0.173522
10196.25000 0.173121
10197.28027 0.172716
10198.29980 0.172316
10199.33008 0.17191
10200.34961 0.171548
10201.37988 0.171259
10202.40039 0.170974
10203.42969 0.170684
10204.45996 0.170394
10205.48047 0.170108
10206.50000 0.169821
10207.53027 0.169531
10208.54980 0.169244
10209.58008 0.168954
10210.59961 0.168672
10211.62988 0.16839
10212.66016 0.168107
10213.67969 0.167828
10214.71973 0.167545
10215.74023 0.167265
10216.76953 0.166982
10217.79004 0.166702
10218.82031 0.166418
10219.83984 0.166137
10220.87988 0.165826
10221.90039 0.165513
10222.92969 0.165196
10223.95020 0.164882
10224.98047 0.164565
10226.00977 0.164252
10227.04004 0.163935
10228.05957 0.163621
10229.08984 0.163303
10230.12988 0.162989
10231.15039 0.162694
10232.16992 0.1624
10233.20996 0.162103
10234.23047 0.161808
10235.25977 0.16151
10236.28027 0.161216
10237.32031 0.160917
10238.34961 0.160619
10239.37988 0.160324
10240.41016 0.160026
10241.42969 0.159735
10242.46973 0.159439
10243.49023 0.159147
10244.53027 0.158851
10245.54980 0.158559
10246.58008 0.158263
10247.61035 0.15797
10248.63965 0.157673
10249.66992 0.15738
10250.70020 0.157075
10251.73047 0.156768
10252.75977 0.156457
10253.79004 0.156149
10254.82031 0.155839
10255.86035 0.155528
10256.87988 0.15522
10257.91992 0.154909
10258.94043 0.154601
10259.98047 0.15429
10261.00977 0.153975
10262.03027 0.153659
10263.07031 0.15334
10264.08984 0.153024
10265.12988 0.152705
10266.16992 0.152386
10267.19043 0.15207
10268.23047 0.15175
10269.25977 0.151434
10270.29004 0.15112
10271.32031 0.150825
10272.36035 0.150526
10273.38965 0.150227
10274.41992 0.149931
10275.45020 0.149636
10276.49023 0.149337
10277.50977 0.14904
10278.54980 0.148741
10279.58008 0.148444
10280.62012 0.148134
10281.63965 0.147821
10282.67969 0.147504
10283.71973 0.147187
10284.75000 0.146873
10285.79004 0.146556
10286.82031 0.146241
10287.83984 0.145927
10288.87988 0.14561
10289.91016 0.145296
10290.95020 0.144991
10291.99023 0.144687
10293.01953 0.144386
10294.05957 0.144082
10295.08984 0.143782
10296.12988 0.143477
10297.16016 0.143175
10298.20020 0.142871
10299.21973 0.142569
10300.25977 0.142263
10301.29004 0.141956
10302.33008 0.141645
10303.36035 0.141338
10304.40039 0.141027
10305.42969 0.140719
10306.48047 0.140408
10307.50000 0.1401
10308.54980 0.139789
10309.58984 0.139477
10310.62012 0.139169
10311.66016 0.138857
10312.69043 0.138548
10313.73047 0.138236
10314.75977 0.137927
10315.79004 0.137618
10316.83008 0.137306
10317.87988 0.136994
10318.91016 0.136684
10319.95020 0.136371
10320.98047 0.136067
10322.01953 0.13576
10323.05957 0.135456
10324.09961 0.135148
10325.12988 0.134844
10326.16992 0.134535
10327.21973 0.134228
10328.25000 0.133922
10329.29004 0.133614
10330.32031 0.133305
10331.36035 0.132988
10332.40039 0.132668
10333.42969 0.132351
10334.48047 0.132031
10335.51953 0.13171
10336.54980 0.131394
10337.59961 0.131073
10338.62988 0.130755
10339.66992 0.130435
10340.70996 0.130126
10341.75000 0.129817
10342.78027 0.129512
10343.82031 0.129206
10344.86035 0.128898
10345.91016 0.128588
10346.94043 0.128282
10347.99023 0.127972
10349.01953 0.127666
10350.07031 0.127355
10351.09961 0.127035
10352.15039 0.126712
10353.19043 0.126388
10354.23047 0.126067
10355.26953 0.125743
10356.30957 0.125423
10357.33984 0.125102
10358.38965 0.124778
10359.41992 0.124457
10360.46973 0.124141
10361.50000 0.12384
10362.54980 0.123535
10363.59961 0.123229
10364.62988 0.122927
10365.67969 0.122621
10366.71973 0.122319
10367.75977 0.122012
10368.79980 0.121709
10369.83984 0.121406
10370.87988 0.121083
10371.92969 0.120756
10372.96973 0.120434
10374.00977 0.120106
10375.04980 0.119783
10376.09961 0.119456
10377.13965 0.119132
10378.17969 0.118804
10379.21973 0.118481
10380.26953 0.118153
10381.32031 0.117825
10382.36035 0.1175
10383.40039 0.117172
10384.44043 0.116846
10385.48047 0.116522
10386.53027 0.116193
10387.57031 0.115867
10388.62012 0.115538
10389.66992 0.115209
10390.70020 0.114873
10391.75000 0.114528
10392.79004 0.114187
10393.83984 0.113843
10394.87988 0.113502
10395.92969 0.113157
10396.96973 0.112816
10398.01953 0.112472
10399.05957 0.112131
10400.11035 0.111796
10401.15039 0.111553
10402.20020 0.111308
10403.24023 0.111066
10404.29004 0.11082
10405.33008 0.110578
10406.37988 0.110332
10407.42969 0.110087
10408.46973 0.109844
10409.51953 0.109598
10410.55957 0.109354
10411.61035 0.109104
10412.65039 0.108857
10413.69043 0.10861
10414.75000 0.10836
10415.79980 0.10811
10416.83984 0.107864
10417.88965 0.107614
10418.92969 0.107366
10419.99023 0.107116
10421.03027 0.106887
10422.08008 0.106656
10423.12012 0.106427
10424.16992 0.106195
10425.23047 0.105964
10426.26953 0.105734
10427.30957 0.105505
10428.36035 0.105273
10429.41016 0.105043
10430.45996 0.104807
10431.50000 0.104569
10432.54980 0.104327
10433.61035 0.104086
10434.65039 0.103848
10435.70996 0.103606
10436.75000 0.103368
10437.79980 0.103126
10438.83984 0.102887
10439.88965 0.102648
10440.94043 0.10242
10441.99023 0.102196
10443.04004 0.10197
10444.09961 0.101743
10445.13965 0.101519
10446.19043 0.101292
10447.24023 0.101068
10448.29004 0.10084
10449.33984 0.100616
10450.38965 0.100383
10451.44043 0.100144
10452.49023 0.0999023
10453.54980 0.0996607
10454.58984 0.0994216
10455.63965 0.0991828
10456.69043 0.0989406
10457.74023 0.0987012
10458.79004 0.0984595
10459.83984 0.0982197
10460.90039 0.0979685
10461.95020 0.0977156
10463.00000 0.0974655
10464.05957 0.0972125
10465.09961 0.0969621
10466.16016 0.0967096
10467.20020 0.096459
10468.25000 0.0962087
10469.30957 0.0959555
10470.37012 0.0957022
10471.41016 0.0954509
10472.46973 0.0951966
10473.51953 0.0949451
10474.57031 0.0946907
10475.62012 0.0944391
10476.67969 0.0941847
10477.73047 0.093933
10478.78027 0.0936784
10479.83984 0.0934242
10480.88965 0.093164
10481.95020 0.0928996
10483.00000 0.0926374
10484.04004 0.0923755
10485.09961 0.0921105
10486.15039 0.0918489
10487.20996 0.0915843
10488.26953 0.0913194
10489.32031 0.0910578
10490.37988 0.0907982
10491.41992 0.0905508
10492.48047 0.0903009
10493.53027 0.0900539
10494.58984 0.0898036
10495.63965 0.0895566
10496.70020 0.0893059
10497.75000 0.0890582
10498.80957 0.0888079
10499.86035 0.0885601
10500.91992 0.0883137
10501.96973 0.0880698
10503.03027 0.0878237
10504.08008 0.0875797
10505.13965 0.0873333
10506.20020 0.0870865
10507.25000 0.0868425
10508.30957 0.0865959
10509.36035 0.0863516
10510.41016 0.0861089
10511.46973 0.085866
10512.53027 0.0856255
10513.58984 0.0853825
10514.63965 0.0851417
10515.70020 0.0848982
10516.75977 0.0846547
10517.80957 0.0844136
10518.87988 0.0841699
10519.92969 0.0839289
10520.99023 0.0836821
10522.04004 0.0834384
10523.08984 0.0831943
10524.16016 0.0829474
10525.21973 0.0827004
10526.26953 0.0824557
10527.33008 0.0822085
10528.37988 0.0819642
10529.45020 0.0817167
10530.50000 0.0814684
10531.55957 0.0812135
10532.62012 0.0809616
10533.67969 0.0807066
10534.75000 0.0804515
10535.79980 0.0801995
10536.86035 0.079944
10537.91016 0.0796922
10538.96973 0.0794394
10540.03027 0.0791842
10541.08008 0.078929
10542.15039 0.0786706
10543.20996 0.0784127
10544.26953 0.0781573
10545.33008 0.0778992
10546.38965 0.0776437
10547.45020 0.0773855
10548.50977 0.0771299
10549.57031 0.0768719
10550.62988 0.0766236
10551.69043 0.0763766
10552.75000 0.076133
10553.80957 0.0758864
10554.87012 0.0756424
10555.92969 0.0753953
10556.99023 0.0751513
10558.04980 0.0749041
10559.11035 0.0746596
10560.17969 0.0744123
10561.24023 0.0741659
10562.29980 0.0739216
10563.37012 0.0736745
10564.41992 0.0734304
10565.49023 0.0731832
10566.54004 0.0729386
10567.59961 0.072694
10568.66992 0.0724463
10569.73047 0.0721985
10570.79004 0.071946
10571.86035 0.0716883
10572.91016 0.0714333
10573.98047 0.0711748
10575.04004 0.0709196
10576.11035 0.0706615
10577.16016 0.070406
10578.23047 0.0701481
10579.29980 0.0698897
10580.36035 0.0696351
10581.41992 0.0693829
10582.48047 0.0691278
10583.54004 0.0688749
10584.61035 0.0686198
10585.66992 0.0683673
10586.74023 0.0681116
10587.80957 0.0678557
10588.87012 0.0676035
10589.92969 0.0673475
10590.99023 0.0670983
10592.05957 0.0668465
10593.12012 0.0665974
10594.19043 0.0663453
10595.25000 0.0660961
10596.30957 0.0658463
10597.37988 0.0655942
10598.45020 0.0653418
10599.50977 0.0650921
10600.58008 0.0648789
10601.63965 0.0647009
10602.70996 0.064521
10603.76953 0.0643425
10604.83984 0.0641621
10605.91016 0.0639817
10606.96973 0.0638032
10608.03027 0.0636244
10609.09961 0.0634438
10610.16016 0.0632637
10611.23047 0.0630763
10612.29004 0.0628913
10613.37012 0.0627039
10614.42969 0.0625186
10615.50000 0.0623307
10616.57031 0.0621431
10617.62988 0.0619576
10618.70996 0.0617696
10619.76953 0.0615841
10620.83984 0.0614009
10621.90039 0.0612211
10622.96973 0.0610391
10624.03027 0.0608585
10625.11035 0.0606765
10626.16992 0.0604966
10627.24023 0.060314
10628.29980 0.0601337
10629.37988 0.0599511
10630.44043 0.0597693
10631.50977 0.0595843
10632.58008 0.0594012
10633.65039 0.0592157
10634.71973 0.0590303
10635.79004 0.0588468
10636.84961 0.0586634
10637.91992 0.0584781
10638.99023 0.0582945
10640.05957 0.0581089
10641.12012 0.0579252
10642.20020 0.0577393
10643.28027 0.0575533
10644.33984 0.0573695
10645.41016 0.0571835
10646.48047 0.0569996
10647.54980 0.0568136
10648.62012 0.0566293
10649.69043 0.0564431
10650.75977 0.0562584
10651.83008 0.0560713
10652.90039 0.0558855
10653.96973 0.0556984
10655.04004 0.0555132
10656.11035 0.0553255
10657.17969 0.0551403
10658.25000 0.0549527
10659.32031 0.0547671
10660.40039 0.0545795
10661.46973 0.0543929
10662.54004 0.0542079
10663.62012 0.054021
10664.67969 0.0538359
10665.75000 0.0536505
10666.83008 0.053463
10667.88965 0.0532782
10668.96973 0.0530903
10670.04980 0.0529036
10671.11035 0.0527198
10672.19043 0.0525344
10673.25977 0.0523503
10674.33008 0.0521646
10675.40039 0.0519809
10676.48047 0.051795
10677.54980 0.0516108
10678.62988 0.0514249
10679.69043 0.0512407
10680.76953 0.0510516
10681.83984 0.0508628
10682.91992 0.050672
10683.98047 0.050483
10685.05957 0.050292
10686.12988 0.0501036
10687.20996 0.0499125
10688.29004 0.0497214
10689.36035 0.0495326
10690.44043 0.0493424
10691.50977 0.0491554
10692.58984 0.0489664
10693.66016 0.0487791
10694.71973 0.0485919
10695.79980 0.0484029
10696.87012 0.0482155
10697.95020 0.0480264
10699.03027 0.0478367
10700.09961 0.0476494
10701.17969 0.047459
10702.25000 0.0472711
10703.33008 0.0470806
10704.40039 0.0468924
10705.49023 0.046702
10706.57031 0.0465113
10707.63965 0.0463231
10708.70996 0.0461347
10709.79004 0.0459439
10710.86035 0.0457519
10711.94043 0.0455559
10713.00977 0.0453623
10714.08984 0.0451667
10715.16016 0.0449734
10716.25000 0.0447777
10717.33008 0.044582
10718.40039 0.0443884
10719.48047 0.0441927
10720.54980 0.0440021
10721.63965 0.0438117
10722.70996 0.0436236
10723.78027 0.0434355
10724.86035 0.0432448
10725.95020 0.0430547
10727.01953 0.042866
10728.09961 0.0426753
10729.16992 0.0424869
10730.25977 0.0422964
10731.33008 0.0421077
10732.41016 0.0419171
10733.48047 0.0417287
10734.57031 0.041538
10735.65039 0.041347
10736.73047 0.0411584
10737.79980 0.0409691
10738.87988 0.0407782
10739.95996 0.0405896
10741.04004 0.0403953
10742.11035 0.0402036
10743.20020 0.0400091
10744.29004 0.0398152
10745.36035 0.0396231
10746.44043 0.0394288
10747.51953 0.0392368
10748.59961 0.0390424
10749.67969 0.0388502
10750.75977 0.0386603
10751.83984 0.0384742
10752.91992 0.0382856
10754.00000 0.0380996
10755.08008 0.037911
10756.16016 0.0377246
10757.25000 0.0375359
10758.32031 0.0373496
10759.41016 0.0371605
10760.48047 0.036971
10761.57031 0.0367763
10762.66016 0.0365814
10763.73047 0.036389
10764.82031 0.0361939
10765.88965 0.0360014
10766.96973 0.0358086
10768.05957 0.0356133
10769.12988 0.0354206
10770.21973 0.035226
10771.30957 0.0350329
10772.38965 0.0348419
10773.46973 0.0346487
10774.54980 0.0344576
10775.63965 0.034264
10776.71973 0.0340729
10777.79980 0.0338794
10778.87988 0.0336879
10779.96973 0.0334946
10781.04980 0.0333046
10782.13965 0.0331132
10783.20996 0.0329236
10784.29980 0.032732
10785.37988 0.0325424
10786.46973 0.0323506
10787.54980 0.032161
10788.63965 0.0319687
10789.73047 0.0317766
10790.80957 0.0315862
10791.90039 0.0313933
10792.96973 0.0312025
10794.05957 0.0310098
10795.13965 0.0308194
10796.21973 0.0306281
10797.30957 0.0304347
10798.38965 0.0302439
10799.48047 0.0300507
10800.57031 0.0297368
10801.65039 0.0293202
10802.74023 0.028902
10803.82031 0.028491
10804.91016 0.0280781
10805.99023 0.0276722
10807.08008 0.027265
10808.17969 0.0268606
10809.25977 0.0264629
10810.33984 0.0260673
10811.42969 0.0256694
10812.50977 0.0252784
10813.59961 0.0248855
10814.67969 0.0245001
10815.76953 0.0241128
10816.86035 0.0237328
10817.95020 0.0233517
10819.04004 0.022973
10820.12012 0.0226016
10821.20996 0.0222279
10822.30957 0.0218576
10823.38965 0.0214941
10824.46973 0.021133
10825.55957 0.0207709
10826.65039 0.0204159
10827.74023 0.0200594
10828.82031 0.0197097
10829.91992 0.019359
10831.00000 0.0190157
10832.08984 0.0186715
10833.19043 0.0183304
10834.26953 0.0179958
10835.36035 0.0176601
10836.45020 0.0173307
10837.54004 0.0170006
10838.62012 0.0166769
10839.70996 0.0163559
10840.79980 0.0160352
10841.90039 0.0157176
10842.98047 0.0154058
10844.07031 0.015094
10845.16016 0.014788
10846.25000 0.0144814
10847.33984 0.0141812
10848.42969 0.0138803
10849.51953 0.0135853
10850.61035 0.0132887
10851.70020 0.0129977
10852.79004 0.0127063
10853.87988 0.0124207
10854.96973 0.0121348
10856.05957 0.0118553
10857.16016 0.0115754
10858.24023 0.0113013
10859.33984 0.0110272
10860.41992 0.010759
10861.51953 0.0104909
10862.62012 0.0102259
10863.70020 0.00996632
10864.79980 0.00970677
10865.87988 0.00945306
10866.98047 0.00919921
10868.07031 0.00895108
10869.15039 0.00870574
10870.25000 0.00846069
10871.34961 0.00821846
10872.44043 0.00798186
10873.54004 0.00774532
10874.62012 0.00751433
10875.71973 0.00728347
10876.80957 0.0070579
10877.91016 0.00683273
10878.99023 0.00661281
10880.08984 0.00639353
10881.17969 0.00617902
10882.28027 0.00596522
10883.37012 0.00575641
10884.45996 0.0055484
10885.54980 0.00534524
10886.65039 0.00514277
10887.74023 0.00494531
11976.51465 0.0
