# %ECSV 0.9
# ---
# datatype:
# - {name: wavelength, unit: Angstrom, datatype: float32}
# - {name: response, datatype: float32}
# meta: !!omap
# - {band_name: F200N}
# - {group_name: NICMOS3}
wavelength response
19747.00977 0.0
19747.21094 6.6e-05
19747.41016 0.000201
19747.60938 0.000335
19747.80078 0.000472
19748.00000 0.000605
19748.19922 0.000627
19748.40039 0.000649
19748.59961 0.000671
19748.78906 0.000693
19748.99023 0.000715
19749.18945 0.000737
19749.39062 0.000759
19749.58984 0.000781
19749.77930 0.000803
19749.98047 0.000825
19750.17969 0.000946
19750.38086 0.001076
19750.57031 0.001206
19750.76953 0.001337
19750.97070 0.001468
19751.16992 0.001598
19751.36914 0.001729
19751.56055 0.001859
19751.75977 0.001991
19751.96094 0.002121
19752.16016 0.002119
19752.35938 0.002084
19752.55078 0.002049
19752.75000 0.002015
19752.94922 0.00198
19753.15039 0.001946
19753.34961 0.001911
19753.53906 0.001876
19753.74023 0.001842
19753.93945 0.001807
19754.14062 0.001767
19754.33984 0.001726
19754.53906 0.001684
19754.73047 0.001642
19754.92969 0.001601
19755.13086 0.001559
19755.33008 0.001518
19755.52930 0.001476
19755.72070 0.001434
19755.91992 0.001393
19756.11914 0.001363
19756.32031 0.001341
19756.51953 0.001319
19756.71094 0.001298
19756.91016 0.001276
19757.10938 0.001255
19757.31055 0.001233
19757.50000 0.001211
19757.69922 0.00119
19757.90039 0.001168
19758.09961 0.001165
19758.30078 0.001182
19758.49023 0.001198
19758.68945 0.001214
19758.89062 0.001231
19759.08984 0.001247
19759.28906 0.001263
19759.48047 0.00128
19759.67969 0.001296
19759.88086 0.001312
19760.08008 0.001318
19760.27930 0.001307
19760.47070 0.001297
19760.66992 0.001287
19760.86914 0.001276
19761.07031 0.001266
19761.26953 0.001255
19761.46094 0.001245
19761.66016 0.001234
19761.85938 0.001224
19762.06055 0.001233
19762.25977 0.001287
19762.46094 0.001341
19762.65039 0.001395
19762.84961 0.001449
19763.05078 0.001503
19763.25000 0.001557
19763.44922 0.001611
19763.64062 0.001665
19763.83984 0.001719
19764.03906 0.001756
19764.24023 0.001729
19764.43945 0.001702
19764.63086 0.001675
19764.83008 0.001648
19765.02930 0.001621
19765.23047 0.001594
19765.42969 0.001567
19765.63086 0.00154
19765.82031 0.001513
19766.01953 0.001485
19766.22070 0.001453
19766.41992 0.00142
19766.61914 0.001388
19766.81055 0.001356
19767.00977 0.001323
19767.21094 0.001291
19767.41016 0.001258
19767.60938 0.001226
19767.80078 0.001193
19768.00000 0.001162
19768.19922 0.001212
19768.40039 0.001261
19768.59961 0.001311
19768.78906 0.001361
19768.99023 0.001411
19769.18945 0.00146
19769.39062 0.00151
19769.58984 0.00156
19769.78906 0.00161
19769.98047 0.001659
19770.17969 0.001661
19770.38086 0.001658
19770.58008 0.001654
19770.77930 0.001651
19770.97070 0.001648
19771.16992 0.001645
19771.36914 0.001642
19771.57031 0.001639
19771.76953 0.001636
19771.97070 0.001633
19772.16016 0.001712
19772.35938 0.001809
19772.56055 0.001905
19772.75977 0.002001
19772.96094 0.002097
19773.15039 0.002193
19773.34961 0.00229
19773.55078 0.002386
19773.75000 0.002482
19773.94922 0.002578
19774.15039 0.002539
19774.33984 0.002453
19774.53906 0.002365
19774.74023 0.002279
19774.93945 0.002191
19775.14062 0.002105
19775.33984 0.002017
19775.52930 0.001931
19775.73047 0.001843
19775.92969 0.001757
19776.13086 0.001681
19776.33008 0.001612
19776.52930 0.001542
19776.72070 0.001473
19776.91992 0.001403
19777.11914 0.001334
19777.32031 0.001264
19777.51953 0.001195
19777.71094 0.001126
19777.91016 0.001056
19778.10938 0.001203
19778.31055 0.001526
19778.50977 0.001847
19778.71094 0.002171
19778.90039 0.002492
19779.09961 0.002815
19779.30078 0.003136
19779.50000 0.00346
19779.69922 0.003781
19779.89062 0.004104
19780.08984 0.004295
19780.28906 0.004338
19780.49023 0.00438
19780.68945 0.004422
19780.89062 0.004464
19781.08008 0.004506
19781.27930 0.004548
19781.48047 0.00459
19781.67969 0.004633
19781.88086 0.004675
19782.08008 0.004624
19782.26953 0.004424
19782.47070 0.004222
19782.66992 0.004022
19782.86914 0.00382
19783.07031 0.00362
19783.26953 0.003418
19783.46094 0.003219
19783.66016 0.003017
19783.85938 0.002817
19784.06055 0.002681
19784.25977 0.002705
19784.46094 0.002729
19784.65039 0.002753
19784.84961 0.002777
19785.05078 0.002801
19785.25000 0.002825
19785.44922 0.00285
19785.64062 0.002873
19785.83984 0.002898
19786.03906 0.002911
19786.24023 0.002884
19786.43945 0.002858
19786.64062 0.002831
19786.83008 0.002805
19787.02930 0.002778
19787.23047 0.002752
19787.42969 0.002725
19787.63086 0.002699
19787.83008 0.002672
19788.02930 0.002667
19788.22070 0.002804
19788.41992 0.002944
19788.61914 0.003082
19788.82031 0.003221
19789.01953 0.003359
19789.21094 0.003498
19789.41016 0.003636
19789.60938 0.003776
19789.81055 0.003914
19790.00977 0.004049
19790.21094 0.004087
19790.40039 0.004124
19790.59961 0.004162
19790.80078 0.004199
19791.00000 0.004236
19791.19922 0.004274
19791.40039 0.004311
19791.59961 0.004349
19791.78906 0.004386
19791.99023 0.004424
19792.18945 0.004417
19792.39062 0.004407
19792.58984 0.004398
19792.78906 0.004389
19792.98047 0.00438
19793.17969 0.004371
19793.38086 0.004362
19793.58008 0.004353
19793.77930 0.004343
19793.97070 0.004334
19794.16992 0.004357
19794.36914 0.004384
19794.57031 0.004412
19794.76953 0.004439
19794.97070 0.004466
19795.16992 0.004494
19795.35938 0.004521
19795.56055 0.004548
19795.75977 0.004576
19795.96094 0.004603
19796.16016 0.004587
19796.35938 0.00456
19796.55078 0.004533
19796.75000 0.004505
19796.94922 0.004478
19797.15039 0.004451
19797.34961 0.004424
19797.55078 0.004397
19797.75000 0.004369
19797.93945 0.004342
19798.14062 0.004305
19798.33984 0.004265
19798.53906 0.004225
19798.74023 0.004184
19798.93945 0.004144
19799.13086 0.004103
19799.33008 0.004063
19799.52930 0.004023
19799.73047 0.003982
19799.92969 0.003942
19800.13086 0.004157
19800.32031 0.004515
19800.51953 0.004876
19800.72070 0.005237
19800.91992 0.005594
19801.11914 0.005955
19801.32031 0.006313
19801.51953 0.006674
19801.71094 0.007035
19801.91016 0.007392
19802.10938 0.007528
19802.31055 0.007487
19802.50977 0.007446
19802.71094 0.007404
19802.90039 0.007363
19803.09961 0.007322
19803.30078 0.00728
19803.50000 0.007239
19803.69922 0.007198
19803.90039 0.007156
19804.09961 0.007152
19804.28906 0.007188
19804.49023 0.007224
19804.68945 0.00726
19804.89062 0.007296
19805.08984 0.007331
19805.28906 0.007367
19805.49023 0.007403
19805.67969 0.007438
19805.88086 0.007474
19806.08008 0.007472
19806.27930 0.007413
19806.48047 0.007354
19806.67969 0.007296
19806.86914 0.007237
19807.07031 0.007178
19807.26953 0.00712
19807.47070 0.007061
19807.66992 0.007002
19807.86914 0.006944
19808.07031 0.006939
19808.26953 0.007044
19808.46094 0.007148
19808.66016 0.007253
19808.85938 0.007358
19809.06055 0.007461
19809.25977 0.007566
19809.46094 0.00767
19809.65039 0.007775
19809.84961 0.00788
19810.05078 0.007978
19810.25000 0.008062
19810.44922 0.008145
19810.65039 0.008228
19810.84961 0.008312
19811.03906 0.008396
19811.24023 0.008479
19811.43945 0.008562
19811.64062 0.008646
19811.83984 0.008729
19812.03906 0.008815
19812.24023 0.008915
19812.42969 0.009013
19812.63086 0.009112
19812.83008 0.009212
19813.02930 0.00931
19813.23047 0.009409
19813.42969 0.009509
19813.63086 0.009608
19813.82031 0.009706
19814.01953 0.009799
19814.22070 0.009836
19814.41992 0.009873
19814.61914 0.009911
19814.82031 0.009949
19815.01953 0.009986
19815.21094 0.010024
19815.41016 0.010061
19815.60938 0.010098
19815.81055 0.010136
19816.00977 0.010179
19816.21094 0.010322
19816.41016 0.010467
19816.60938 0.010612
19816.80078 0.010755
19817.00000 0.0109
19817.19922 0.011045
19817.40039 0.011189
19817.59961 0.011333
19817.80078 0.011477
19818.00000 0.011622
19818.18945 0.011772
19818.39062 0.011924
19818.58984 0.012075
19818.78906 0.012225
19818.99023 0.012377
19819.18945 0.012528
19819.39062 0.01268
19819.58008 0.01283
19819.77930 0.012982
19819.98047 0.013133
19820.17969 0.013222
19820.38086 0.013305
19820.58008 0.013389
19820.77930 0.013472
19820.97070 0.013555
19821.16992 0.013638
19821.36914 0.013722
19821.57031 0.013805
19821.76953 0.013888
19821.97070 0.013972
19822.16992 0.014061
19822.36914 0.01415
19822.56055 0.014241
19822.75977 0.014331
19822.96094 0.01442
19823.16016 0.014511
19823.35938 0.014601
19823.56055 0.014691
19823.75977 0.014781
19823.96094 0.014871
19824.15039 0.015044
19824.34961 0.015242
19824.55078 0.015438
19824.75000 0.015635
19824.94922 0.015833
19825.15039 0.016031
19825.34961 0.016227
19825.53906 0.016424
19825.74023 0.016622
19825.93945 0.016818
19826.14062 0.01696
19826.33984 0.01708
19826.53906 0.017199
19826.74023 0.017317
19826.93945 0.017437
19827.13086 0.017556
19827.33008 0.017676
19827.52930 0.017794
19827.73047 0.017914
19827.92969 0.018033
19828.13086 0.018152
19828.33008 0.018271
19828.52930 0.01839
19828.72070 0.018509
19828.91992 0.018628
19829.11914 0.018746
19829.32031 0.018866
19829.51953 0.018985
19829.72070 0.019104
19829.91992 0.019223
19830.11914 0.019422
19830.31055 0.019681
19830.50977 0.01994
19830.71094 0.020199
19830.91016 0.020455
19831.10938 0.020714
19831.31055 0.020973
19831.50977 0.021232
19831.71094 0.021488
19831.90039 0.021747
19832.09961 0.021981
19832.30078 0.022191
19832.50000 0.022401
19832.69922 0.02261
19832.90039 0.02282
19833.09961 0.02303
19833.30078 0.02324
19833.49023 0.023449
19833.68945 0.023659
19833.89062 0.023869
19834.08984 0.024081
19834.28906 0.024293
19834.49023 0.024504
19834.68945 0.024717
19834.89062 0.02493
19835.08984 0.025142
19835.27930 0.025353
19835.48047 0.025566
19835.67969 0.025779
19835.88086 0.025991
19836.08008 0.026245
19836.27930 0.026555
19836.48047 0.026869
19836.67969 0.027182
19836.86914 0.027496
19837.07031 0.02781
19837.26953 0.02812
19837.47070 0.028434
19837.66992 0.028747
19837.86914 0.029061
19838.07031 0.029355
19838.26953 0.02961
19838.46094 0.029867
19838.66016 0.030125
19838.85938 0.030382
19839.06055 0.030639
19839.25977 0.030894
19839.46094 0.031151
19839.66016 0.031409
19839.85938 0.031666
19840.06055 0.031968
19840.25000 0.03238
19840.44922 0.032795
19840.65039 0.03321
19840.84961 0.033626
19841.05078 0.034041
19841.25000 0.034457
19841.44922 0.034868
19841.65039 0.035284
19841.84961 0.035699
19842.03906 0.036103
19842.24023 0.036468
19842.43945 0.036832
19842.64062 0.037194
19842.83984 0.037558
19843.03906 0.037923
19843.24023 0.038288
19843.43945 0.038652
19843.63086 0.039014
19843.83008 0.039378
19844.02930 0.03975
19844.23047 0.04016
19844.42969 0.040569
19844.63086 0.040978
19844.83008 0.041383
19845.02930 0.041792
19845.23047 0.042202
19845.42969 0.042611
19845.63086 0.04302
19845.82031 0.043429
19846.01953 0.043845
19846.22070 0.044307
19846.41992 0.044774
19846.61914 0.04524
19846.82031 0.045707
19847.01953 0.046173
19847.22070 0.04664
19847.41016 0.047102
19847.60938 0.047568
19847.81055 0.048035
19848.00977 0.0485
19848.21094 0.048938
19848.41016 0.049377
19848.60938 0.049815
19848.81055 0.05025
19849.00977 0.050688
19849.21094 0.051127
19849.40039 0.051565
19849.59961 0.052004
19849.80078 0.052443
19850.00000 0.052883
19850.19922 0.053464
19850.40039 0.054051
19850.59961 0.054638
19850.80078 0.055225
19851.00000 0.055812
19851.19922 0.056399
19851.39062 0.056986
19851.58984 0.057573
19851.78906 0.058154
19851.99023 0.058741
19852.18945 0.059324
19852.39062 0.059907
19852.58984 0.06049
19852.78906 0.061073
19852.99023 0.061656
19853.18945 0.062238
19853.38086 0.062816
19853.58008 0.063398
19853.77930 0.063981
19853.98047 0.064564
19854.17969 0.06523
19854.38086 0.065904
19854.58008 0.066579
19854.77930 0.067253
19854.98047 0.067928
19855.16992 0.068596
19855.36914 0.069271
19855.57031 0.069945
19855.76953 0.07062
19855.97070 0.071295
19856.16992 0.071966
19856.36914 0.072636
19856.57031 0.073307
19856.76953 0.073977
19856.97070 0.074648
19857.16016 0.075312
19857.35938 0.075982
19857.56055 0.076653
19857.75977 0.077323
19857.96094 0.077994
19858.16016 0.078887
19858.35938 0.079835
19858.56055 0.080783
19858.75977 0.08173
19858.96094 0.082678
19859.15039 0.083617
19859.34961 0.084564
19859.55078 0.085512
19859.75000 0.08646
19859.94922 0.087408
19860.15039 0.088153
19860.34961 0.088832
19860.55078 0.089512
19860.75000 0.090191
19860.94922 0.09087
19861.15039 0.091549
19861.34961 0.092229
19861.53906 0.092901
19861.74023 0.093581
19861.93945 0.09426
19862.14062 0.095278
19862.33984 0.096438
19862.53906 0.097597
19862.74023 0.098757
19862.93945 0.099916
19863.14062 0.101076
19863.33984 0.102236
19863.53906 0.103395
19863.73047 0.104555
19863.92969 0.105715
19864.13086 0.106678
19864.33008 0.107543
19864.52930 0.1084
19864.73047 0.109265
19864.92969 0.110131
19865.13086 0.110996
19865.33008 0.111862
19865.52930 0.112727
19865.72070 0.113592
19865.91992 0.114458
19866.11914 0.115414
19866.32031 0.116428
19866.51953 0.117441
19866.72070 0.118454
19866.91992 0.119467
19867.11914 0.12048
19867.32031 0.121493
19867.51953 0.122506
19867.72070 0.123519
19867.91992 0.124533
19868.11914 0.125529
19868.31055 0.126502
19868.50977 0.127486
19868.71094 0.12847
19868.91016 0.129453
19869.10938 0.130437
19869.31055 0.131421
19869.50977 0.132404
19869.71094 0.133388
19869.91016 0.134372
19870.10938 0.135376
19870.30078 0.136396
19870.50000 0.137417
19870.69922 0.138438
19870.90039 0.139459
19871.09961 0.140481
19871.30078 0.141502
19871.50000 0.142523
19871.69922 0.143544
19871.90039 0.144565
19872.09961 0.145586
19872.30078 0.146606
19872.50000 0.147626
19872.69922 0.148646
19872.89062 0.149667
19873.08984 0.150687
19873.28906 0.151707
19873.49023 0.152728
19873.68945 0.153748
19873.89062 0.154768
19874.08984 0.155796
19874.28906 0.156833
19874.49023 0.15787
19874.68945 0.158907
19874.89062 0.159944
19875.08984 0.160981
19875.28906 0.162018
19875.48047 0.163055
19875.67969 0.164092
19875.88086 0.165129
19876.08008 0.166143
19876.27930 0.167124
19876.48047 0.168104
19876.67969 0.169085
19876.88086 0.170066
19877.08008 0.171047
19877.27930 0.172028
19877.48047 0.173009
19877.67969 0.17399
19877.88086 0.174971
19878.07031 0.175916
19878.26953 0.176802
19878.47070 0.177687
19878.66992 0.178572
19878.86914 0.179458
19879.07031 0.180343
19879.26953 0.181229
19879.47070 0.182114
19879.66992 0.183
19879.86914 0.183886
19880.07031 0.184747
19880.26953 0.185561
19880.46094 0.186375
19880.66016 0.187189
19880.85938 0.188003
19881.06055 0.188817
19881.25977 0.189631
19881.46094 0.190445
19881.66016 0.191259
19881.85938 0.192073
19882.06055 0.192902
19882.25977 0.193765
19882.46094 0.194629
19882.66016 0.195492
19882.85938 0.196356
19883.05078 0.197219
19883.25000 0.198083
19883.44922 0.198947
19883.65039 0.19981
19883.84961 0.200674
19884.05078 0.201491
19884.25000 0.202172
19884.44922 0.202854
19884.65039 0.203542
19884.84961 0.204223
19885.05078 0.204904
19885.25000 0.205585
19885.44922 0.206267
19885.65039 0.206948
19885.84961 0.207629
19886.03906 0.208295
19886.24023 0.208907
19886.43945 0.20952
19886.64062 0.210132
19886.83984 0.210744
19887.03906 0.211357
19887.24023 0.211969
19887.43945 0.212581
19887.64062 0.213193
19887.83984 0.213806
19888.03906 0.214414
19888.24023 0.215001
19888.43945 0.215594
19888.64062 0.216181
19888.83984 0.216769
19889.03906 0.217356
19889.23047 0.217944
19889.42969 0.218531
19889.63086 0.219119
19889.83008 0.219706
19890.02930 0.220262
19890.23047 0.220646
19890.42969 0.221031
19890.63086 0.221416
19890.83008 0.2218
19891.02930 0.222185
19891.23047 0.22257
19891.42969 0.222958
19891.63086 0.223343
19891.83008 0.223728
19892.02930 0.224095
19892.22070 0.224339
19892.41992 0.224584
19892.61914 0.224829
19892.82031 0.225074
19893.01953 0.225319
19893.22070 0.225564
19893.41992 0.225809
19893.61914 0.226054
19893.82031 0.226301
19894.01953 0.226536
19894.22070 0.226681
19894.41992 0.226826
19894.61914 0.226971
19894.82031 0.227116
19895.01953 0.227261
19895.21094 0.227406
19895.41016 0.227551
19895.60938 0.227696
19895.81055 0.227841
19896.00977 0.227988
19896.21094 0.22814
19896.41016 0.228292
19896.60938 0.228444
19896.81055 0.228596
19897.00977 0.228748
19897.21094 0.2289
19897.41016 0.229052
19897.60938 0.229204
19897.81055 0.229357
19898.00977 0.229506
19898.21094 0.229573
19898.41016 0.229641
19898.60938 0.229708
19898.80078 0.229776
19899.00000 0.229844
19899.19922 0.229911
19899.40039 0.229979
19899.59961 0.230047
19899.80078 0.230115
19900.00000 0.230183
19900.19922 0.230344
19900.40039 0.230504
19900.59961 0.230665
19900.80078 0.230825
19901.00000 0.230986
19901.19922 0.231148
19901.40039 0.231308
19901.59961 0.231469
19901.80078 0.231629
19902.00000 0.23179
19902.19922 0.231637
19902.39062 0.231478
19902.58984 0.231318
19902.78906 0.231157
19902.99023 0.230998
19903.18945 0.230838
19903.39062 0.230679
19903.58984 0.23052
19903.78906 0.23036
19903.99023 0.230201
19904.18945 0.230149
19904.39062 0.230102
19904.58984 0.230056
19904.78906 0.23001
19904.99023 0.229964
19905.18945 0.229918
19905.39062 0.229872
19905.58984 0.229825
19905.78906 0.229779
19905.99023 0.229733
19906.18945 0.229547
19906.38086 0.229351
19906.58008 0.229155
19906.78906 0.228957
19906.98047 0.22876
19907.17969 0.228564
19907.38086 0.228368
19907.58008 0.228172
19907.77930 0.227975
19907.98047 0.227779
19908.17969 0.22762
19908.38086 0.227466
19908.58008 0.227313
19908.77930 0.227159
19908.98047 0.227005
19909.17969 0.226852
19909.38086 0.226697
19909.58008 0.226543
19909.77930 0.226389
19909.98047 0.226236
19910.17969 0.226114
19910.36914 0.225996
19910.58008 0.225877
19910.77930 0.22576
19910.97070 0.225642
19911.16992 0.225524
19911.36914 0.225406
19911.57031 0.225288
19911.76953 0.22517
19911.97070 0.225052
19912.16992 0.224943
19912.36914 0.224836
19912.57031 0.224728
19912.76953 0.22462
19912.97070 0.224512
19913.16992 0.224405
19913.36914 0.224297
19913.57031 0.22419
19913.76953 0.224081
19913.97070 0.223974
19914.16992 0.223768
19914.36914 0.223543
19914.57031 0.223319
19914.76953 0.223092
19914.97070 0.222868
19915.16992 0.222644
19915.36914 0.222419
19915.56055 0.222195
19915.76953 0.221968
19915.96094 0.221744
19916.16016 0.221609
19916.35938 0.221493
19916.56055 0.221378
19916.75977 0.221261
19916.96094 0.221145
19917.16016 0.221029
19917.35938 0.220914
19917.56055 0.220798
19917.75977 0.220681
19917.96094 0.220566
19918.16016 0.220425
19918.35938 0.220277
19918.56055 0.22013
19918.75977 0.219981
19918.96094 0.219834
19919.16016 0.219687
19919.35938 0.21954
19919.56055 0.219391
19919.75977 0.219244
19919.96094 0.219096
19920.16016 0.219056
19920.35938 0.219045
19920.56055 0.219033
19920.75977 0.219022
19920.96094 0.21901
19921.15039 0.218999
19921.35938 0.218988
19921.55078 0.218976
19921.75000 0.218965
19921.94922 0.218954
19922.15039 0.218835
19922.34961 0.218685
19922.55078 0.218535
19922.75000 0.218385
19922.94922 0.218234
19923.15039 0.218084
19923.34961 0.217934
19923.55078 0.217784
19923.75000 0.217634
19923.94922 0.217482
19924.15039 0.217413
19924.34961 0.217369
19924.55078 0.217326
19924.75000 0.217281
19924.94922 0.217238
19925.15039 0.217194
19925.34961 0.217151
19925.55078 0.217107
19925.75000 0.217063
19925.94922 0.21702
19926.15039 0.21696
19926.34961 0.216894
19926.55078 0.216828
19926.75000 0.216762
19926.94922 0.216696
19927.15039 0.21663
19927.34961 0.216564
19927.53906 0.216498
19927.75000 0.216432
19927.94922 0.216366
19928.14062 0.216369
19928.33984 0.216399
19928.53906 0.216429
19928.74023 0.216459
19928.93945 0.216489
19929.14062 0.216518
19929.33984 0.216549
19929.53906 0.216578
19929.74023 0.216608
19929.93945 0.216638
19930.14062 0.216501
19930.33984 0.216297
19930.53906 0.216094
19930.74023 0.215889
19930.93945 0.215685
19931.14062 0.215482
19931.33984 0.215278
19931.53906 0.215073
19931.74023 0.214869
19931.93945 0.214666
19932.14062 0.214641
19932.33984 0.214693
19932.53906 0.214745
19932.74023 0.214797
19932.93945 0.214849
19933.14062 0.214901
19933.33984 0.214953
19933.53906 0.215005
19933.74023 0.215057
19933.93945 0.215109
19934.14062 0.215147
19934.33984 0.21518
19934.53906 0.215212
19934.74023 0.215245
19934.93945 0.215277
19935.14062 0.21531
19935.33984 0.215342
19935.53906 0.215375
19935.74023 0.215407
19935.93945 0.21544
19936.14062 0.215445
19936.33984 0.215438
19936.53906 0.215431
19936.73047 0.215424
19936.93945 0.215417
19937.13086 0.21541
19937.33008 0.215403
19937.53906 0.215395
19937.73047 0.215389
19937.92969 0.215381
19938.13086 0.215424
19938.33008 0.21549
19938.52930 0.215556
19938.73047 0.215623
19938.92969 0.215689
19939.13086 0.215755
19939.33008 0.215822
19939.52930 0.215888
19939.73047 0.215954
19939.92969 0.216021
19940.13086 0.216051
19940.33008 0.216063
19940.52930 0.216076
19940.73047 0.216088
19940.92969 0.216101
19941.13086 0.216113
19941.33008 0.216125
19941.52930 0.216138
19941.73047 0.21615
19941.92969 0.216163
19942.13086 0.216249
19942.33008 0.216373
19942.52930 0.216499
19942.73047 0.216623
19942.92969 0.216749
19943.13086 0.216873
19943.33008 0.216998
19943.52930 0.217124
19943.73047 0.217248
19943.92969 0.217372
19944.13086 0.217486
19944.33008 0.217592
19944.52930 0.217697
19944.73047 0.217804
19944.92969 0.21791
19945.13086 0.218016
19945.33008 0.218123
19945.52930 0.218228
19945.73047 0.218334
19945.92969 0.218441
19946.13086 0.218569
19946.33008 0.218708
19946.52930 0.218849
19946.73047 0.218989
19946.92969 0.21913
19947.13086 0.219269
19947.33008 0.219409
19947.52930 0.21955
19947.73047 0.219689
19947.92969 0.219829
19948.13086 0.219928
19948.33008 0.220003
19948.52930 0.220078
19948.73047 0.220153
19948.92969 0.220228
19949.13086 0.220304
19949.33008 0.220378
19949.52930 0.220453
19949.73047 0.220529
19949.92969 0.220604
19950.13086 0.220665
19950.33008 0.22072
19950.52930 0.220774
19950.73047 0.220829
19950.92969 0.220883
19951.13086 0.220937
19951.33008 0.220992
19951.52930 0.221046
19951.73047 0.221101
19951.92969 0.221155
19952.13086 0.221335
19952.33008 0.221589
19952.52930 0.221841
19952.73047 0.222093
19952.92969 0.222347
19953.13086 0.222599
19953.33008 0.222853
19953.52930 0.223105
19953.73047 0.223357
19953.92969 0.223611
19954.13086 0.223758
19954.33008 0.223845
19954.52930 0.22393
19954.73047 0.224016
19954.92969 0.224103
19955.13086 0.224189
19955.33008 0.224276
19955.52930 0.224362
19955.73047 0.224448
19955.92969 0.224534
19956.13086 0.224654
19956.33008 0.224794
19956.52930 0.224932
19956.73047 0.225072
19956.92969 0.225211
19957.13086 0.225349
19957.33008 0.225489
19957.52930 0.225628
19957.73047 0.225768
19957.92969 0.225906
19958.13086 0.226018
19958.33008 0.226116
19958.52930 0.226213
19958.73047 0.22631
19958.92969 0.226407
19959.13086 0.226505
19959.33008 0.226602
19959.52930 0.226699
19959.73047 0.226797
19959.92969 0.226894
19960.13086 0.227008
19960.33008 0.22713
19960.52930 0.227254
19960.73047 0.227377
19960.92969 0.227499
19961.13086 0.227623
19961.33008 0.227745
19961.52930 0.227869
19961.73047 0.227991
19961.92969 0.228115
19962.13086 0.228349
19962.33008 0.228643
19962.52930 0.228941
19962.73047 0.229236
19962.92969 0.229533
19963.13086 0.229828
19963.33008 0.230126
19963.52930 0.23042
19963.73047 0.230718
19963.92969 0.231012
19964.13086 0.2311
19964.33008 0.231074
19964.52930 0.231049
19964.73047 0.231023
19964.92969 0.230998
19965.13086 0.230972
19965.33008 0.230947
19965.52930 0.230921
19965.73047 0.230896
19965.92969 0.23087
19966.13086 0.23099
19966.33008 0.231185
19966.52930 0.231383
19966.73047 0.231578
19966.92969 0.231776
19967.13086 0.231972
19967.33008 0.232169
19967.52930 0.232365
19967.73047 0.232563
19967.92969 0.232758
19968.13086 0.232924
19968.33008 0.233072
19968.52930 0.233222
19968.73047 0.23337
19968.92969 0.233519
19969.13086 0.233667
19969.33008 0.233817
19969.52930 0.233965
19969.73047 0.234113
19969.92969 0.234262
19970.13086 0.234424
19970.33008 0.234595
19970.52930 0.234764
19970.73047 0.234935
19970.92969 0.235104
19971.13086 0.235275
19971.33008 0.235444
19971.53906 0.235615
19971.73047 0.235784
19971.93945 0.235955
19972.13086 0.236118
19972.33984 0.236282
19972.53906 0.236443
19972.74023 0.236606
19972.93945 0.236767
19973.14062 0.236931
19973.33984 0.237092
19973.53906 0.237255
19973.74023 0.237417
19973.93945 0.23758
19974.14062 0.237713
19974.33984 0.237834
19974.53906 0.237954
19974.74023 0.238075
19974.93945 0.238195
19975.14062 0.238316
19975.33984 0.238436
19975.53906 0.238558
19975.74023 0.238678
19975.93945 0.238799
19976.14062 0.238905
19976.33984 0.239006
19976.53906 0.239106
19976.74023 0.239208
19976.93945 0.239308
19977.14062 0.239409
19977.33984 0.239509
19977.53906 0.23961
19977.74023 0.23971
19977.93945 0.239812
19978.14062 0.239964
19978.33984 0.240141
19978.53906 0.240318
19978.74023 0.240493
19978.93945 0.240669
19979.14062 0.240844
19979.33984 0.241021
19979.53906 0.241196
19979.74023 0.241372
19979.93945 0.241547
19980.14062 0.241597
19980.33984 0.241597
19980.53906 0.241597
19980.74023 0.241597
19980.94922 0.241598
19981.14062 0.241598
19981.34961 0.241598
19981.55078 0.241598
19981.75000 0.241598
19981.94922 0.241599
19982.15039 0.241613
19982.34961 0.241633
19982.55078 0.241653
19982.75000 0.241672
19982.94922 0.241692
19983.15039 0.241712
19983.34961 0.241732
19983.55078 0.241752
19983.75000 0.241771
19983.94922 0.241791
19984.15039 0.241887
19984.34961 0.242007
19984.55078 0.242129
19984.75000 0.242249
19984.94922 0.242371
19985.15039 0.242491
19985.34961 0.242613
19985.55078 0.242735
19985.75000 0.242855
19985.94922 0.242977
19986.15039 0.243127
19986.34961 0.243289
19986.55078 0.243449
19986.75000 0.243611
19986.94922 0.243771
19987.15039 0.243932
19987.35938 0.244094
19987.55078 0.244254
19987.75977 0.244416
19987.96094 0.244576
19988.16016 0.244627
19988.35938 0.244647
19988.56055 0.244668
19988.75977 0.244688
19988.96094 0.244708
19989.16016 0.244728
19989.35938 0.244748
19989.56055 0.244769
19989.75977 0.244789
19989.96094 0.244809
19990.16016 0.244853
19990.35938 0.244904
19990.56055 0.244954
19990.75977 0.245004
19990.96094 0.245055
19991.16016 0.245106
19991.35938 0.245156
19991.56055 0.245207
19991.75977 0.245257
19991.96094 0.245308
19992.16016 0.245378
19992.35938 0.245451
19992.56055 0.245525
19992.75977 0.245598
19992.96094 0.245672
19993.16992 0.245746
19993.36914 0.245819
19993.57031 0.245893
19993.76953 0.245966
19993.97070 0.24604
19994.16992 0.246177
19994.36914 0.246325
19994.57031 0.246474
19994.76953 0.246622
19994.97070 0.246772
19995.16992 0.246921
19995.36914 0.247069
19995.57031 0.247219
19995.76953 0.247367
19995.97070 0.247516
19996.16992 0.247528
19996.36914 0.247515
19996.57031 0.247503
19996.76953 0.247491
19996.97070 0.247479
19997.16992 0.247467
19997.36914 0.247455
19997.57031 0.247443
19997.77930 0.247431
19997.97070 0.247419
19998.17969 0.247411
19998.38086 0.247404
19998.58008 0.247397
19998.77930 0.24739
19998.98047 0.247384
19999.17969 0.247376
19999.38086 0.247369
19999.58008 0.247363
19999.77930 0.247356
19999.98047 0.247349
20000.17969 0.247379
20000.38086 0.247413
20000.58008 0.247447
20000.77930 0.247482
20000.98047 0.247517
20001.17969 0.247551
20001.38086 0.247585
20001.58008 0.24762
20001.77930 0.247654
20001.98047 0.247689
20002.18945 0.247654
20002.38086 0.247614
20002.58984 0.247573
20002.78906 0.247533
20002.99023 0.247492
20003.18945 0.247451
20003.39062 0.247411
20003.58984 0.247371
20003.78906 0.24733
20003.99023 0.24729
20004.18945 0.247256
20004.39062 0.247222
20004.58984 0.247189
20004.78906 0.247155
20004.99023 0.247121
20005.18945 0.247088
20005.39062 0.247054
20005.58984 0.247021
20005.78906 0.246987
20005.99023 0.246953
20006.19922 0.247005
20006.39062 0.247058
20006.59961 0.247112
20006.80078 0.247166
20007.00000 0.247219
20007.19922 0.247273
20007.40039 0.247327
20007.59961 0.247381
20007.80078 0.247435
20008.00000 0.247488
20008.19922 0.247499
20008.40039 0.247509
20008.59961 0.24752
20008.80078 0.247531
20009.00000 0.247541
20009.19922 0.247552
20009.40039 0.247562
20009.59961 0.247573
20009.80078 0.247584
20010.00977 0.247596
20010.21094 0.247664
20010.41016 0.247732
20010.60938 0.247801
20010.81055 0.247869
20011.00977 0.247938
20011.21094 0.248006
20011.41016 0.248074
20011.60938 0.248143
20011.81055 0.248211
20012.00977 0.248276
20012.21094 0.24828
20012.41016 0.248285
20012.60938 0.248289
20012.81055 0.248294
20013.00977 0.248298
20013.21094 0.248303
20013.41016 0.248307
20013.61914 0.248311
20013.82031 0.248316
20014.01953 0.24831
20014.22070 0.24818
20014.41992 0.24805
20014.61914 0.247921
20014.82031 0.247792
20015.01953 0.247663
20015.22070 0.247533
20015.41992 0.247404
20015.61914 0.247275
20015.82031 0.247145
20016.01953 0.247045
20016.22070 0.247167
20016.41992 0.247291
20016.61914 0.247415
20016.82031 0.247537
20017.02930 0.247661
20017.23047 0.247785
20017.42969 0.247908
20017.63086 0.248031
20017.83008 0.248155
20018.02930 0.248259
20018.23047 0.248247
20018.42969 0.248234
20018.63086 0.248222
20018.83008 0.24821
20019.02930 0.248198
20019.23047 0.248186
20019.42969 0.248173
20019.63086 0.248161
20019.83008 0.248149
20020.03906 0.248151
20020.24023 0.248221
20020.43945 0.24829
20020.64062 0.24836
20020.83984 0.248429
20021.03906 0.248499
20021.24023 0.248569
20021.43945 0.248638
20021.64062 0.248707
20021.83984 0.248777
20022.03906 0.248815
20022.24023 0.248732
20022.43945 0.24865
20022.64062 0.248567
20022.83984 0.248485
20023.03906 0.248402
20023.25000 0.248319
20023.44922 0.248236
20023.65039 0.248153
20023.84961 0.248071
20024.05078 0.247986
20024.25000 0.247893
20024.44922 0.2478
20024.65039 0.247708
20024.84961 0.247615
20025.05078 0.247522
20025.25000 0.247429
20025.44922 0.247337
20025.65039 0.247244
20025.85938 0.247151
20026.06055 0.247097
20026.25977 0.247144
20026.46094 0.247191
20026.66016 0.247237
20026.85938 0.247284
20027.06055 0.247331
20027.25977 0.247378
20027.46094 0.247424
20027.66016 0.247471
20027.85938 0.247518
20028.06055 0.247526
20028.25977 0.247449
20028.46094 0.247372
20028.66992 0.247295
20028.86914 0.247218
20029.07031 0.247141
20029.26953 0.247064
20029.47070 0.246987
20029.66992 0.24691
20029.86914 0.246834
20030.07031 0.246759
20030.26953 0.246687
20030.47070 0.246616
20030.66992 0.246544
20030.86914 0.246473
20031.07031 0.246402
20031.27930 0.24633
20031.48047 0.246259
20031.67969 0.246187
20031.88086 0.246117
20032.08008 0.246094
20032.27930 0.246148
20032.48047 0.246202
20032.67969 0.246256
20032.88086 0.246309
20033.08008 0.246363
20033.27930 0.246417
20033.48047 0.246471
20033.68945 0.246525
20033.88086 0.246578
20034.08984 0.246526
20034.28906 0.24633
20034.49023 0.246135
20034.68945 0.245939
20034.89062 0.245746
20035.08984 0.24555
20035.28906 0.245354
20035.49023 0.245159
20035.68945 0.244963
20035.89062 0.244768
20036.08984 0.244625
20036.28906 0.244538
20036.50000 0.244452
20036.69922 0.244365
20036.90039 0.244279
20037.09961 0.244193
20037.30078 0.244107
20037.50000 0.24402
20037.69922 0.243934
20037.90039 0.243847
20038.09961 0.243728
20038.30078 0.24358
20038.50000 0.243431
20038.71094 0.243281
20038.91016 0.243132
20039.10938 0.242982
20039.31055 0.242833
20039.50977 0.242685
20039.71094 0.242535
20039.91016 0.242386
20040.10938 0.24225
20040.31055 0.242126
20040.50977 0.242002
20040.71094 0.241879
20040.91016 0.241755
20041.11914 0.241631
20041.32031 0.241507
20041.51953 0.241382
20041.72070 0.241258
20041.91992 0.241134
20042.11914 0.240901
20042.32031 0.24059
20042.51953 0.24028
20042.72070 0.239969
20042.91992 0.239659
20043.13086 0.239348
20043.33008 0.239038
20043.52930 0.23873
20043.73047 0.238419
20043.92969 0.238109
20044.13086 0.237808
20044.33008 0.237514
20044.52930 0.23722
20044.73047 0.236925
20044.92969 0.236633
20045.13086 0.236339
20045.33008 0.236044
20045.53906 0.23575
20045.74023 0.235455
20045.93945 0.235161
20046.14062 0.234903
20046.33984 0.234664
20046.53906 0.234423
20046.74023 0.234181
20046.93945 0.23394
20047.14062 0.233698
20047.33984 0.233457
20047.53906 0.233215
20047.75000 0.232974
20047.94922 0.232735
20048.15039 0.232354
20048.34961 0.231922
20048.55078 0.231489
20048.75000 0.231057
20048.94922 0.230624
20049.15039 0.230192
20049.34961 0.229759
20049.55078 0.229326
20049.75000 0.228898
20049.96094 0.228465
20050.16016 0.228003
20050.35938 0.227533
20050.56055 0.227062
20050.75977 0.226592
20050.96094 0.226121
20051.16016 0.225651
20051.35938 0.22518
20051.56055 0.224714
20051.75977 0.224243
20051.96094 0.223772
20052.16992 0.223263
20052.36914 0.222745
20052.57031 0.222228
20052.76953 0.22171
20052.97070 0.221193
20053.16992 0.220675
20053.36914 0.220158
20053.57031 0.21964
20053.76953 0.219127
20053.97070 0.218609
20054.17969 0.218044
20054.38086 0.217472
20054.58008 0.216899
20054.77930 0.216327
20054.98047 0.215754
20055.17969 0.215181
20055.38086 0.214609
20055.58008 0.214036
20055.78906 0.213463
20055.99023 0.21289
20056.18945 0.212265
20056.39062 0.211629
20056.58984 0.210993
20056.78906 0.210357
20056.99023 0.209721
20057.18945 0.209085
20057.39062 0.208448
20057.58984 0.207812
20057.78906 0.207176
20058.00000 0.206539
20058.19922 0.205861
20058.40039 0.205182
20058.59961 0.204504
20058.80078 0.203824
20059.00000 0.203152
20059.19922 0.202473
20059.40039 0.201794
20059.59961 0.201115
20059.80078 0.200435
20060.00977 0.199752
20060.21094 0.198938
20060.41016 0.198125
20060.60938 0.197312
20060.81055 0.196498
20061.00977 0.195684
20061.21094 0.194871
20061.41016 0.194057
20061.61914 0.193243
20061.82031 0.192429
20062.01953 0.191615
20062.22070 0.190809
20062.41992 0.190003
20062.61914 0.189205
20062.82031 0.188399
20063.01953 0.187593
20063.22070 0.186786
20063.41992 0.18598
20063.61914 0.185173
20063.83008 0.184367
20064.02930 0.183551
20064.23047 0.182674
20064.42969 0.181797
20064.63086 0.18092
20064.83008 0.180043
20065.02930 0.179166
20065.23047 0.178289
20065.43945 0.177412
20065.64062 0.176535
20065.83984 0.175657
20066.03906 0.17479
20066.24023 0.173964
20066.43945 0.173138
20066.64062 0.172312
20066.83984 0.171486
20067.03906 0.170659
20067.25000 0.169833
20067.44922 0.169007
20067.65039 0.16818
20067.84961 0.167354
20068.05078 0.166505
20068.25000 0.165592
20068.44922 0.164679
20068.65039 0.163766
20068.85938 0.162853
20069.06055 0.161939
20069.25977 0.161026
20069.46094 0.160112
20069.66016 0.159198
20069.85938 0.158284
20070.06055 0.157378
20070.25977 0.156487
20070.46094 0.155595
20070.66992 0.154704
20070.86914 0.153812
20071.07031 0.15292
20071.26953 0.152029
20071.47070 0.151137
20071.66992 0.150245
20071.86914 0.149353
20072.07031 0.14843
20072.27930 0.147454
20072.48047 0.146478
20072.67969 0.145502
20072.88086 0.144525
20073.08008 0.143549
20073.27930 0.142572
20073.48047 0.141596
20073.67969 0.140619
20073.88086 0.139642
20074.08984 0.138676
20074.28906 0.137723
20074.49023 0.13677
20074.68945 0.135817
20074.89062 0.134864
20075.08984 0.133911
20075.28906 0.132958
20075.49023 0.132004
20075.69922 0.131051
20075.90039 0.130097
20076.09961 0.129184
20076.30078 0.128313
20076.50000 0.127442
20076.69922 0.126571
20076.90039 0.1257
20077.09961 0.124829
20077.30078 0.123957
20077.50977 0.123086
20077.71094 0.122215
20077.91016 0.121343
20078.10938 0.120474
20078.31055 0.119607
20078.50977 0.118739
20078.71094 0.117872
20078.91016 0.117004
20079.11914 0.116137
20079.32031 0.115269
20079.51953 0.114402
20079.72070 0.113534
20079.91992 0.112666
20080.11914 0.111803
20080.32031 0.110956
20080.52930 0.11011
20080.73047 0.109264
20080.92969 0.108417
20081.13086 0.107571
20081.33008 0.106724
20081.52930 0.105877
20081.73047 0.10503
20081.92969 0.104183
20082.13086 0.103351
20082.33984 0.102525
20082.53906 0.101699
20082.74023 0.100873
20082.93945 0.100047
20083.14062 0.099221
20083.33984 0.098395
20083.53906 0.097568
20083.75000 0.096734
20083.94922 0.095907
20084.15039 0.095166
20084.34961 0.094456
20084.55078 0.093745
20084.75000 0.093034
20084.94922 0.092323
20085.15039 0.091612
20085.35938 0.090901
20085.56055 0.09019
20085.75977 0.089479
20085.96094 0.088768
20086.16016 0.08797
20086.35938 0.087151
20086.56055 0.086323
20086.76953 0.085503
20086.97070 0.084683
20087.16992 0.083863
20087.36914 0.083043
20087.57031 0.082222
20087.76953 0.081402
20087.97070 0.080581
20088.16992 0.079925
20088.38086 0.079295
20088.58008 0.078665
20088.77930 0.078034
20088.98047 0.077398
20089.17969 0.076767
20089.38086 0.076137
20089.58008 0.075506
20089.78906 0.074875
20089.99023 0.074244
20090.18945 0.073562
20090.39062 0.072876
20090.58984 0.07219
20090.78906 0.071503
20090.99023 0.070817
20091.19922 0.070124
20091.40039 0.069437
20091.59961 0.068751
20091.80078 0.068064
20092.00000 0.067377
20092.19922 0.06682
20092.40039 0.066262
20092.59961 0.065704
20092.80078 0.065147
20093.00977 0.064584
20093.21094 0.064026
20093.41016 0.063468
20093.60938 0.06291
20093.81055 0.062352
20094.00977 0.061797
20094.21094 0.061294
20094.41992 0.060791
20094.61914 0.060288
20094.82031 0.05978
20095.01953 0.059277
20095.22070 0.058773
20095.41992 0.05827
20095.63086 0.057767
20095.83008 0.057263
20096.02930 0.056757
20096.23047 0.056233
20096.42969 0.055704
20096.63086 0.05518
20096.83008 0.054657
20097.03906 0.054133
20097.24023 0.053609
20097.43945 0.053085
20097.64062 0.05256
20097.83984 0.052031
20098.03906 0.051535
20098.24023 0.051142
20098.44922 0.050748
20098.65039 0.050355
20098.84961 0.049961
20099.05078 0.049568
20099.25000 0.049171
20099.44922 0.048777
20099.65039 0.048383
20099.85938 0.04799
20100.06055 0.0476
20100.25977 0.047222
20100.46094 0.046843
20100.66016 0.04646
20100.85938 0.046081
20101.06055 0.045702
20101.26953 0.045323
20101.47070 0.044944
20101.66992 0.044565
20101.86914 0.044186
20102.07031 0.043776
20102.26953 0.043322
20102.47070 0.042867
20102.67969 0.042413
20102.88086 0.041958
20103.08008 0.041503
20103.27930 0.041044
20103.48047 0.040589
20103.67969 0.040134
20103.88086 0.039679
20104.08984 0.039281
20104.28906 0.038959
20104.49023 0.038634
20104.68945 0.038312
20104.89062 0.03799
20105.08984 0.037668
20105.28906 0.037346
20105.50000 0.037024
20105.69922 0.036698
20105.90039 0.036376
20106.09961 0.036056
20106.30078 0.035739
20106.50000 0.035422
20106.71094 0.035102
20106.91016 0.034784
20107.10938 0.034467
20107.31055 0.03415
20107.50977 0.033832
20107.71094 0.033515
20107.91992 0.033194
20108.11914 0.032887
20108.32031 0.032588
20108.51953 0.032289
20108.72070 0.031989
20108.91992 0.031687
20109.13086 0.031387
20109.33008 0.031088
20109.52930 0.030788
20109.73047 0.030489
20109.92969 0.030186
20110.13086 0.029912
20110.33008 0.029651
20110.53906 0.02939
20110.74023 0.02913
20110.93945 0.028866
20111.14062 0.028605
20111.33984 0.028344
20111.53906 0.028083
20111.74023 0.027822
20111.94922 0.027559
20112.15039 0.027311
20112.34961 0.027068
20112.55078 0.026825
20112.75000 0.026581
20112.96094 0.026336
20113.16016 0.026092
20113.35938 0.025849
20113.56055 0.025605
20113.75977 0.02536
20113.96094 0.025116
20114.16016 0.024853
20114.36914 0.024586
20114.57031 0.024318
20114.76953 0.024048
20114.97070 0.02378
20115.16992 0.023513
20115.36914 0.023245
20115.58008 0.022975
20115.77930 0.022707
20115.98047 0.02244
20116.17969 0.022238
20116.38086 0.022045
20116.58008 0.02185
20116.78906 0.021656
20116.99023 0.021463
20117.18945 0.021269
20117.39062 0.021074
20117.58984 0.02088
20117.78906 0.020686
20117.99023 0.020493
20118.19922 0.020515
20118.40039 0.020544
20118.59961 0.020572
20118.80078 0.020601
20119.00000 0.02063
20119.21094 0.020658
20119.41016 0.020687
20119.60938 0.020716
20119.81055 0.020744
20120.00977 0.020754
20120.21094 0.020457
20120.41016 0.020159
20120.61914 0.019859
20120.82031 0.019562
20121.01953 0.019264
20121.22070 0.018967
20121.41992 0.018667
20121.63086 0.018369
20121.83008 0.018072
20122.02930 0.01778
20122.23047 0.017522
20122.42969 0.017266
20122.63086 0.01701
20122.83008 0.016754
20123.03906 0.016496
20123.24023 0.01624
20123.43945 0.015984
20123.64062 0.015728
20123.83984 0.01547
20124.03906 0.015251
20124.25000 0.015162
20124.44922 0.015073
20124.65039 0.014984
20124.84961 0.014895
20125.05078 0.014807
20125.25977 0.014717
20125.46094 0.014628
20125.66016 0.014539
20125.85938 0.014451
20126.06055 0.014358
20126.25977 0.014259
20126.46094 0.01416
20126.66992 0.014061
20126.86914 0.013962
20127.07031 0.013863
20127.26953 0.013764
20127.47070 0.013665
20127.67969 0.013566
20127.88086 0.013467
20128.08008 0.013377
20128.27930 0.013303
20128.48047 0.013228
20128.67969 0.013154
20128.89062 0.013079
20129.08984 0.013005
20129.28906 0.01293
20129.49023 0.012855
20129.68945 0.012781
20129.89062 0.012707
20130.09961 0.012592
20130.30078 0.012435
20130.50000 0.012279
20130.69922 0.012122
20130.90039 0.011964
20131.10938 0.011808
20131.31055 0.011651
20131.50977 0.011493
20131.71094 0.011337
20131.91016 0.01118
20132.11914 0.011063
20132.32031 0.010978
20132.51953 0.010894
20132.72070 0.010808
20132.91992 0.010723
20133.11914 0.010638
20133.33008 0.010553
20133.52930 0.010468
20133.73047 0.010383
20133.92969 0.010297
20134.13086 0.010235
20134.33008 0.010185
20134.53906 0.010135
20134.74023 0.010084
20134.93945 0.010034
20135.14062 0.009983
20135.33984 0.009933
20135.53906 0.009882
20135.75000 0.009832
20135.94922 0.009781
20136.15039 0.009713
20136.34961 0.00964
20136.55078 0.009565
20136.75977 0.009491
20136.96094 0.009418
20137.16016 0.009343
20137.35938 0.009269
20137.56055 0.009196
20137.76953 0.009121
20137.97070 0.009047
20138.16992 0.008908
20138.36914 0.008755
20138.57031 0.008603
20138.77930 0.008449
20138.98047 0.008297
20139.17969 0.008145
20139.38086 0.007991
20139.58008 0.007839
20139.77930 0.007687
20139.99023 0.007534
20140.18945 0.007577
20140.39062 0.007634
20140.58984 0.007691
20140.78906 0.007749
20140.99023 0.007806
20141.19922 0.007864
20141.40039 0.007921
20141.59961 0.007978
20141.80078 0.008036
20142.00000 0.008092
20142.21094 0.008063
20142.41016 0.008034
20142.60938 0.008005
20142.81055 0.007976
20143.00977 0.007948
20143.21094 0.007919
20143.41992 0.00789
20143.61914 0.007861
20143.82031 0.007832
20144.01953 0.0078
20144.22070 0.007743
20144.42969 0.007685
20144.63086 0.007628
20144.83008 0.00757
20145.02930 0.007512
20145.23047 0.007455
20145.43945 0.007397
20145.64062 0.00734
20145.83984 0.007282
20146.03906 0.00721
20146.24023 0.007086
20146.44922 0.006962
20146.65039 0.006837
20146.84961 0.006714
20147.05078 0.006589
20147.25000 0.006465
20147.46094 0.006341
20147.66016 0.006216
20147.85938 0.006092
20148.06055 0.005993
20148.25977 0.005955
20148.46094 0.005916
20148.66992 0.005877
20148.86914 0.005839
20149.07031 0.0058
20149.26953 0.005761
20149.47070 0.005722
20149.67969 0.005683
20149.88086 0.005645
20150.08008 0.005612
20150.27930 0.005587
20150.48047 0.005563
20150.68945 0.005538
20150.89062 0.005514
20151.08984 0.00549
20151.28906 0.005465
20151.49023 0.005441
20151.69922 0.005417
20151.90039 0.005392
20152.09961 0.005333
20152.30078 0.005239
20152.50000 0.005145
20152.71094 0.00505
20152.91016 0.004956
20153.10938 0.004861
20153.31055 0.004767
20153.51953 0.004673
20153.72070 0.004579
20153.91992 0.004485
20154.11914 0.004461
20154.32031 0.004485
20154.52930 0.004509
20154.73047 0.004533
20154.92969 0.004557
20155.13086 0.004581
20155.33008 0.004605
20155.53906 0.004629
20155.74023 0.004653
20155.93945 0.004678
20156.14062 0.004672
20156.33984 0.004654
20156.53906 0.004635
20156.75000 0.004617
20156.94922 0.004599
20157.15039 0.004581
20157.34961 0.004562
20157.55078 0.004544
20157.75977 0.004526
20157.96094 0.004507
20158.16016 0.004419
20158.35938 0.004313
20158.56055 0.004208
20158.76953 0.004102
20158.97070 0.003996
20159.16992 0.00389
20159.36914 0.003784
20159.58008 0.003678
20159.77930 0.003572
20159.98047 0.003466
20160.17969 0.003463
20160.38086 0.00347
20160.58984 0.003478
20160.78906 0.003485
20160.99023 0.003493
20161.18945 0.0035
20161.39062 0.003508
20161.59961 0.003516
20161.80078 0.003523
20162.00000 0.003531
20162.19922 0.003512
20162.40039 0.003492
20162.60938 0.003473
20162.81055 0.003454
20163.00977 0.003434
20163.21094 0.003415
20163.41016 0.003396
20163.61914 0.003376
20163.82031 0.003357
20164.01953 0.003353
20164.22070 0.003481
20164.42969 0.00361
20164.63086 0.003737
20164.83008 0.003866
20165.02930 0.003994
20165.23047 0.004123
20165.43945 0.00425
20165.64062 0.004379
20165.83984 0.004507
20166.03906 0.004576
20166.24023 0.004423
20166.44922 0.004269
20166.65039 0.004116
20166.84961 0.003961
20167.05078 0.003808
20167.25977 0.003654
20167.46094 0.003501
20167.66016 0.003347
20167.85938 0.003194
20168.06055 0.003073
20168.26953 0.003027
20168.47070 0.002981
20168.66992 0.002934
20168.86914 0.002888
20169.07031 0.002842
20169.27930 0.002795
20169.48047 0.002749
20169.67969 0.002702
20169.88086 0.002656
20170.08984 0.002619
20170.28906 0.002595
20170.49023 0.002571
20170.68945 0.002547
20170.89062 0.002523
20171.09961 0.002499
20171.30078 0.002474
20171.50000 0.00245
20171.69922 0.002426
20171.90039 0.002402
20172.10938 0.002413
20172.31055 0.002455
20172.50977 0.002497
20172.71094 0.002538
20172.91992 0.002581
20173.11914 0.002622
20173.32031 0.002664
20173.51953 0.002706
20173.72070 0.002748
20173.92969 0.00279
20174.13086 0.002794
20174.33008 0.002777
20174.52930 0.002759
20174.74023 0.002741
20174.93945 0.002724
20175.14062 0.002706
20175.33984 0.002688
20175.53906 0.002671
20175.75000 0.002653
20175.94922 0.002635
20176.15039 0.002604
20176.34961 0.002567
20176.55078 0.002531
20176.75977 0.002494
20176.96094 0.002457
20177.16016 0.002421
20177.36914 0.002384
20177.57031 0.002348
20177.76953 0.002311
20177.97070 0.002275
20178.16992 0.002216
20178.36914 0.002154
20178.58008 0.002091
20178.77930 0.002028
20178.98047 0.001965
20179.18945 0.001902
20179.39062 0.00184
20179.58984 0.001777
20179.78906 0.001715
20179.99023 0.001652
20180.19922 0.001869
20180.40039 0.002096
20180.59961 0.002321
20180.80078 0.002549
20181.00977 0.002777
20181.21094 0.003002
20181.41016 0.00323
20181.60938 0.003455
20181.81055 0.003683
20182.01953 0.003884
20182.22070 0.003798
20182.41992 0.003711
20182.61914 0.003626
20182.83008 0.003539
20183.02930 0.003453
20183.23047 0.003367
20183.42969 0.003281
20183.63086 0.003195
20183.83984 0.003108
20184.03906 0.003019
20184.24023 0.002918
20184.43945 0.002817
20184.65039 0.002715
20184.84961 0.002614
20185.05078 0.002512
20185.25000 0.00241
20185.46094 0.002309
20185.66016 0.002207
20185.85938 0.002107
20186.06055 0.002013
20186.26953 0.001936
20186.47070 0.001861
20186.66992 0.001784
20186.86914 0.001709
20187.07031 0.001632
20187.27930 0.001556
20187.48047 0.00148
20187.67969 0.001404
20187.88086 0.001328
20188.08984 0.001278
20188.28906 0.001264
20188.49023 0.001251
20188.68945 0.001237
20188.89062 0.001223
20189.09961 0.001209
20189.30078 0.001195
20189.50000 0.001181
20189.71094 0.001167
20189.91016 0.001153
20190.10938 0.001134
20190.31055 0.001109
20190.50977 0.001084
20190.72070 0.001059
20190.91992 0.001035
20191.11914 0.00101
20191.32031 0.000985
20191.52930 0.000961
20191.73047 0.000936
20191.92969 0.000911
20192.13086 0.000942
20192.33984 0.001002
20192.53906 0.001062
20192.74023 0.001122
20192.93945 0.001182
20193.14062 0.001242
20193.34961 0.001302
20193.55078 0.001362
20193.75000 0.001422
20193.96094 0.001483
20194.16016 0.001483
20194.35938 0.001465
20194.56055 0.001448
20194.75977 0.001431
20194.97070 0.001413
20195.16992 0.001396
20195.36914 0.001379
20195.57031 0.001361
20195.77930 0.001344
20195.98047 0.001326
20196.17969 0.001347
20196.38086 0.001371
20196.58984 0.001396
20196.78906 0.001421
20196.99023 0.001446
20197.18945 0.001471
20197.40039 0.001496
20197.59961 0.00152
20197.80078 0.001545
20198.00000 0.001568
20198.21094 0.00147
20198.41016 0.001372
20198.60938 0.001275
20198.81055 0.001177
20199.01953 0.001079
20199.22070 0.000982
20199.41992 0.000884
20199.61914 0.000786
20199.82031 0.000688
20200.02930 0.000603
20200.23047 0.000604
20200.42969 0.000604
20200.63086 0.000604
20200.83984 0.000604
20201.03906 0.000604
20201.24023 0.000604
20201.44922 0.000604
20201.65039 0.000604
20201.84961 0.000605
20202.05078 0.000605
20202.25000 0.000605
20202.46094 0.000606
20202.66016 0.000607
20202.85938 0.000607
20203.06055 0.000608
20203.26953 0.000608
20203.47070 0.000609
20203.66992 0.000609
20203.86914 0.00061
20204.08008 0.000592
20204.27930 0.000544
20204.48047 0.000495
20204.68945 0.000447
22225.15820 0.0
