# %ECSV 0.9
# ---
# datatype:
# - {name: wavelength, unit: Angstrom, datatype: float32}
# - {name: response, datatype: float32}
# meta: !!omap
# - {band_name: F187N}
# - {group_name: NICMOS3}
wavelength response
18535.68945 0.0
18535.88086 1.3e-05
18536.06055 5.9e-05
18536.24023 9.6e-05
18536.42969 0.000134
18536.60938 0.000171
18536.78906 0.000208
18536.98047 0.000246
18537.16016 0.000283
18537.34961 0.000321
18537.52930 0.000358
18537.71094 0.000395
18537.90039 0.000433
18538.08008 0.000458
18538.26953 0.00047
18538.44922 0.000481
18538.63086 0.000492
18538.82031 0.000503
18539.00000 0.000514
18539.18945 0.000526
18539.36914 0.000537
18539.55078 0.000548
18539.74023 0.000559
18539.91992 0.000571
18540.10938 0.000584
18540.28906 0.000598
18540.47070 0.000612
18540.66016 0.000626
18540.83984 0.00064
18541.02930 0.000655
18541.21094 0.000669
18541.39062 0.000683
18541.58008 0.000697
18541.75977 0.000711
18541.94922 0.000726
18542.13086 0.000722
18542.31055 0.000712
18542.50000 0.000702
18542.67969 0.000692
18542.86914 0.000682
18543.05078 0.000672
18543.23047 0.000662
18543.41992 0.000652
18543.59961 0.000641
18543.78906 0.000631
18543.97070 0.000621
18544.16016 0.000627
18544.33984 0.000635
18544.51953 0.000643
18544.71094 0.000651
18544.89062 0.000659
18545.08008 0.000667
18545.25977 0.000675
18545.43945 0.000683
18545.63086 0.000691
18545.81055 0.000699
18546.00000 0.000707
18546.17969 0.000719
18546.35938 0.000731
18546.55078 0.000743
18546.73047 0.000755
18546.91992 0.000767
18547.09961 0.000779
18547.28906 0.000791
18547.47070 0.000803
18547.65039 0.000815
18547.83984 0.000827
18548.01953 0.000833
18548.21094 0.000791
18548.39062 0.00075
18548.57031 0.000708
18548.75977 0.000667
18548.93945 0.000625
18549.11914 0.000584
18549.31055 0.000542
18549.49023 0.0005
18549.67969 0.000459
18549.85938 0.000418
18550.05078 0.000405
18550.23047 0.00048
18550.41016 0.000554
18550.59961 0.000629
18550.77930 0.000704
18550.97070 0.000779
18551.15039 0.000853
18551.33008 0.000928
18551.51953 0.001003
18551.69922 0.001077
18551.89062 0.001152
18552.07031 0.001179
18552.25977 0.001133
18552.43945 0.001086
18552.61914 0.001039
18552.81055 0.000991
18552.99023 0.000945
18553.17969 0.000898
18553.35938 0.000851
18553.53906 0.000803
18553.73047 0.000757
18553.91016 0.00071
18554.09961 0.000704
18554.27930 0.000735
18554.46094 0.000766
18554.65039 0.000797
18554.83008 0.000829
18555.01953 0.00086
18555.19922 0.000891
18555.39062 0.000922
18555.57031 0.000953
18555.75000 0.000984
18555.93945 0.001016
18556.11914 0.001053
18556.31055 0.001092
18556.49023 0.001132
18556.67969 0.001172
18556.85938 0.001212
18557.03906 0.001252
18557.23047 0.001292
18557.41016 0.001332
18557.59961 0.001371
18557.77930 0.001411
18557.96094 0.001451
18558.15039 0.001443
18558.33008 0.001423
18558.51953 0.001402
18558.69922 0.001382
18558.88086 0.001362
18559.07031 0.001342
18559.25000 0.001322
18559.43945 0.001302
18559.61914 0.001282
18559.81055 0.001262
18559.99023 0.001242
18560.17969 0.001201
18560.35938 0.001159
18560.53906 0.001118
18560.73047 0.001076
18560.91016 0.001034
18561.09961 0.000992
18561.27930 0.00095
18561.46094 0.000908
18561.65039 0.000867
18561.83008 0.000825
18562.01953 0.000789
18562.19922 0.000808
18562.38086 0.000827
18562.57031 0.000846
18562.75000 0.000865
18562.93945 0.000884
18563.11914 0.000903
18563.31055 0.000922
18563.49023 0.000941
18563.67969 0.00096
18563.85938 0.000979
18564.03906 0.001005
18564.23047 0.001053
18564.41016 0.001101
18564.59961 0.001148
18564.77930 0.001196
18564.96094 0.001244
18565.15039 0.001291
18565.33008 0.00134
18565.51953 0.001387
18565.69922 0.001435
18565.89062 0.001483
18566.07031 0.001498
18566.25000 0.00146
18566.43945 0.001421
18566.61914 0.001383
18566.81055 0.001346
18566.99023 0.001307
18567.17969 0.001269
18567.35938 0.001231
18567.53906 0.001193
18567.73047 0.001155
18567.91016 0.001117
18568.09961 0.001117
18568.27930 0.001152
18568.47070 0.001186
18568.65039 0.00122
18568.83008 0.001254
18569.01953 0.001289
18569.19922 0.001323
18569.39062 0.001357
18569.57031 0.001392
18569.75977 0.001426
18569.93945 0.00146
18570.13086 0.001482
18570.31055 0.001498
18570.49023 0.001514
18570.67969 0.001531
18570.85938 0.001547
18571.05078 0.001563
18571.23047 0.001579
18571.41016 0.001595
18571.59961 0.001612
18571.77930 0.001628
18571.97070 0.001644
18572.15039 0.001669
18572.33984 0.001695
18572.51953 0.001721
18572.71094 0.001747
18572.89062 0.001774
18573.07031 0.0018
18573.25977 0.001826
18573.43945 0.001853
18573.63086 0.001879
18573.81055 0.001905
18574.00000 0.001932
18574.17969 0.001909
18574.36914 0.001886
18574.55078 0.001863
18574.73047 0.001839
18574.91992 0.001816
18575.09961 0.001793
18575.28906 0.001769
18575.47070 0.001746
18575.65039 0.001723
18575.83984 0.001699
18576.01953 0.001682
18576.21094 0.001708
18576.39062 0.001734
18576.58008 0.00176
18576.75977 0.001786
18576.94922 0.001812
18577.13086 0.001837
18577.31055 0.001863
18577.50000 0.001889
18577.67969 0.001915
18577.86914 0.001941
18578.05078 0.001963
18578.24023 0.001973
18578.41992 0.001984
18578.60938 0.001995
18578.78906 0.002005
18578.97070 0.002016
18579.16016 0.002027
18579.33984 0.002037
18579.52930 0.002048
18579.71094 0.002059
18579.90039 0.002069
18580.08008 0.002096
18580.25977 0.002144
18580.44922 0.002191
18580.63086 0.002239
18580.82031 0.002287
18581.00000 0.002334
18581.18945 0.002382
18581.36914 0.002429
18581.55078 0.002477
18581.74023 0.002524
18581.91992 0.002572
18582.10938 0.002595
18582.28906 0.002601
18582.48047 0.002608
18582.66016 0.002614
18582.84961 0.00262
18583.02930 0.002626
18583.21094 0.002632
18583.40039 0.002639
18583.58008 0.002645
18583.76953 0.002651
18583.94922 0.002657
18584.14062 0.002716
18584.32031 0.002793
18584.50977 0.00287
18584.68945 0.002947
18584.88086 0.003024
18585.06055 0.003101
18585.24023 0.003178
18585.42969 0.003255
18585.60938 0.003332
18585.80078 0.003409
18585.98047 0.003486
18586.16992 0.003525
18586.34961 0.003561
18586.53906 0.003596
18586.72070 0.003632
18586.90039 0.003668
18587.08984 0.003703
18587.26953 0.003739
18587.46094 0.003774
18587.64062 0.00381
18587.83008 0.003845
18588.00977 0.003871
18588.19922 0.003754
18588.38086 0.003636
18588.56055 0.003519
18588.75000 0.003401
18588.92969 0.003285
18589.11914 0.003167
18589.30078 0.00305
18589.49023 0.002933
18589.66992 0.002815
18589.85938 0.002698
18590.03906 0.002636
18590.22070 0.002771
18590.41016 0.002907
18590.58984 0.003041
18590.77930 0.003177
18590.96094 0.003311
18591.15039 0.003447
18591.33008 0.003581
18591.51953 0.003717
18591.69922 0.003851
18591.89062 0.003987
18592.07031 0.004067
18592.25977 0.004059
18592.43945 0.00405
18592.63086 0.004042
18592.81055 0.004034
18592.99023 0.004026
18593.17969 0.004017
18593.35938 0.004009
18593.55078 0.004001
18593.73047 0.003993
18593.91992 0.003984
18594.09961 0.004037
18594.28906 0.004141
18594.47070 0.004245
18594.65039 0.004349
18594.83984 0.004453
18595.01953 0.004557
18595.21094 0.004661
18595.39062 0.004765
18595.58008 0.004869
18595.75977 0.004973
18595.94922 0.005077
18596.13086 0.005125
18596.31055 0.00515
18596.50000 0.005174
18596.67969 0.005199
18596.86914 0.005224
18597.05078 0.005248
18597.24023 0.005273
18597.41992 0.005298
18597.60938 0.005322
18597.78906 0.005347
18597.98047 0.005372
18598.16016 0.005388
18598.34961 0.005403
18598.52930 0.005418
18598.71094 0.005433
18598.90039 0.005448
18599.08008 0.005463
18599.26953 0.005478
18599.44922 0.005493
18599.64062 0.005508
18599.82031 0.005523
18600.00977 0.005541
18600.18945 0.005672
18600.38086 0.005804
18600.56055 0.005933
18600.75000 0.006064
18600.92969 0.006194
18601.11914 0.006325
18601.30078 0.006455
18601.48047 0.006586
18601.66992 0.006716
18601.84961 0.006847
18602.03906 0.006958
18602.22070 0.006995
18602.41016 0.007032
18602.58984 0.007069
18602.77930 0.007106
18602.96094 0.007143
18603.14062 0.00718
18603.33008 0.007217
18603.50977 0.007254
18603.69922 0.007291
18603.88086 0.007328
18604.07031 0.007368
18604.25000 0.007416
18604.43945 0.007463
18604.61914 0.00751
18604.81055 0.007557
18604.99023 0.007605
18605.17969 0.007652
18605.35938 0.007699
18605.53906 0.007746
18605.73047 0.007793
18605.91992 0.007841
18606.09961 0.00789
18606.28906 0.00794
18606.47070 0.00799
18606.65039 0.00804
18606.83984 0.00809
18607.01953 0.008141
18607.21094 0.008191
18607.39062 0.008241
18607.58008 0.008291
18607.75977 0.008342
18607.94922 0.008392
18608.13086 0.008416
18608.32031 0.00843
18608.50000 0.008444
18608.68945 0.008458
18608.86914 0.008471
18609.05078 0.008485
18609.24023 0.008499
18609.41992 0.008513
18609.60938 0.008527
18609.78906 0.00854
18609.98047 0.008554
18610.16016 0.008789
18610.34961 0.009057
18610.52930 0.009324
18610.72070 0.009589
18610.90039 0.009856
18611.08984 0.010121
18611.26953 0.010388
18611.46094 0.010653
18611.64062 0.01092
18611.83008 0.011188
18612.00977 0.01144
18612.19922 0.011471
18612.38086 0.011501
18612.56055 0.011532
18612.75000 0.011563
18612.92969 0.011593
18613.11914 0.011624
18613.30078 0.011655
18613.49023 0.011686
18613.66992 0.011716
18613.85938 0.011747
18614.03906 0.011811
18614.23047 0.011982
18614.41016 0.012155
18614.59961 0.012327
18614.77930 0.0125
18614.96094 0.012671
18615.15039 0.012845
18615.33984 0.013018
18615.51953 0.013189
18615.71094 0.013362
18615.89062 0.013534
18616.07031 0.013725
18616.25977 0.013943
18616.43945 0.014159
18616.63086 0.014377
18616.81055 0.014593
18617.00000 0.014811
18617.17969 0.015029
18617.36914 0.015244
18617.55078 0.015463
18617.74023 0.015678
18617.91992 0.015896
18618.10938 0.016102
18618.28906 0.016296
18618.48047 0.016492
18618.66016 0.016688
18618.84961 0.016882
18619.02930 0.017079
18619.21094 0.017273
18619.40039 0.017469
18619.58984 0.017665
18619.76953 0.017859
18619.96094 0.018055
18620.14062 0.018198
18620.32031 0.018325
18620.50977 0.018452
18620.68945 0.018578
18620.88086 0.018705
18621.06055 0.018832
18621.25000 0.018958
18621.42969 0.019085
18621.61914 0.019211
18621.80078 0.019338
18621.99023 0.019465
18622.16992 0.019728
18622.35938 0.020002
18622.53906 0.020277
18622.73047 0.020548
18622.91016 0.020823
18623.09961 0.021098
18623.27930 0.021369
18623.47070 0.021644
18623.65039 0.021915
18623.83984 0.02219
18624.01953 0.022462
18624.21094 0.022715
18624.39062 0.02297
18624.58008 0.023225
18624.75977 0.023477
18624.94922 0.023733
18625.13086 0.023988
18625.31055 0.02424
18625.50000 0.024495
18625.67969 0.024748
18625.86914 0.025003
18626.05078 0.025251
18626.24023 0.025479
18626.41992 0.025709
18626.60938 0.02594
18626.78906 0.026168
18626.98047 0.026399
18627.16016 0.026629
18627.34961 0.026857
18627.52930 0.027088
18627.72070 0.027318
18627.90039 0.027546
18628.08984 0.027841
18628.26953 0.028207
18628.46094 0.028569
18628.64062 0.028936
18628.83008 0.029302
18629.00977 0.029664
18629.19922 0.03003
18629.38086 0.030396
18629.57031 0.030759
18629.75000 0.031125
18629.93945 0.031491
18630.11914 0.031857
18630.31055 0.032228
18630.49023 0.032599
18630.67969 0.032967
18630.85938 0.033338
18631.05078 0.03371
18631.23047 0.034077
18631.41992 0.034449
18631.59961 0.03482
18631.78906 0.035187
18631.97070 0.035559
18632.16016 0.036022
18632.33984 0.036498
18632.52930 0.036978
18632.71094 0.037459
18632.89062 0.037934
18633.08008 0.038415
18633.26953 0.038896
18633.44922 0.039376
18633.63086 0.039852
18633.82031 0.040332
18634.00977 0.040813
18634.18945 0.041294
18634.36914 0.04178
18634.56055 0.042266
18634.74023 0.042748
18634.92969 0.043234
18635.11914 0.04372
18635.30078 0.044201
18635.48047 0.044687
18635.66992 0.045173
18635.85938 0.04566
18636.03906 0.046166
18636.22070 0.046776
18636.41016 0.047385
18636.58984 0.047988
18636.77930 0.048597
18636.96094 0.049206
18637.15039 0.049809
18637.33008 0.050418
18637.51953 0.051027
18637.71094 0.051636
18637.89062 0.052239
18638.07031 0.052896
18638.25977 0.053626
18638.43945 0.054347
18638.63086 0.055077
18638.81055 0.055806
18639.00000 0.056535
18639.17969 0.057257
18639.36914 0.057987
18639.55078 0.058716
18639.74023 0.059438
18639.91992 0.060167
18640.10938 0.060882
18640.28906 0.061588
18640.48047 0.062286
18640.66016 0.062992
18640.84961 0.063697
18641.03906 0.064403
18641.22070 0.065101
18641.40039 0.065806
18641.58984 0.066512
18641.76953 0.06721
18641.96094 0.067916
18642.14062 0.068677
18642.33008 0.069453
18642.50977 0.070221
18642.69922 0.070998
18642.88086 0.071774
18643.07031 0.072551
18643.25000 0.073319
18643.43945 0.074096
18643.61914 0.074872
18643.81055 0.075649
18643.99023 0.076417
18644.17969 0.077233
18644.36914 0.07805
18644.55078 0.078867
18644.73047 0.079675
18644.91992 0.080493
18645.10938 0.08131
18645.28906 0.082118
18645.47070 0.082935
18645.66016 0.083752
18645.84961 0.084569
18646.02930 0.085388
18646.21094 0.08627
18646.40039 0.087153
18646.58984 0.088035
18646.76953 0.088908
18646.96094 0.089791
18647.14062 0.090673
18647.33008 0.091556
18647.50977 0.092438
18647.69922 0.093311
18647.88086 0.094194
18648.07031 0.095071
18648.25000 0.095941
18648.43945 0.096801
18648.61914 0.09767
18648.81055 0.098539
18648.99023 0.099408
18649.17969 0.100268
18649.35938 0.101138
18649.55078 0.102007
18649.73047 0.102876
18649.91992 0.103736
18650.09961 0.104705
18650.28906 0.105756
18650.47070 0.106807
18650.66016 0.107858
18650.83984 0.108898
18651.02930 0.109949
18651.21094 0.111
18651.40039 0.112051
18651.58008 0.113091
18651.76953 0.114142
18651.94922 0.115193
18652.14062 0.116161
18652.32031 0.117101
18652.50977 0.118032
18652.68945 0.118972
18652.88086 0.119913
18653.06055 0.120853
18653.25000 0.121794
18653.42969 0.122724
18653.61914 0.123665
18653.80078 0.124605
18653.99023 0.125545
18654.16992 0.126487
18654.35938 0.12744
18654.53906 0.128392
18654.73047 0.129345
18654.91992 0.130298
18655.09961 0.13124
18655.28906 0.132193
18655.47070 0.133145
18655.66016 0.134098
18655.83984 0.13505
18656.02930 0.136008
18656.21094 0.137075
18656.40039 0.138141
18656.58008 0.139208
18656.76953 0.140274
18656.94922 0.141329
18657.14062 0.142396
18657.32031 0.143462
18657.50977 0.144529
18657.68945 0.145595
18657.88086 0.146662
18658.06055 0.147667
18658.25000 0.148584
18658.42969 0.149501
18658.61914 0.150419
18658.80078 0.151336
18658.99023 0.152244
18659.16992 0.153161
18659.35938 0.154078
18659.53906 0.154996
18659.73047 0.155913
18659.91992 0.15683
18660.09961 0.157695
18660.28906 0.158534
18660.47070 0.159372
18660.66016 0.16021
18660.83984 0.161049
18661.02930 0.161878
18661.21094 0.162716
18661.40039 0.163554
18661.58008 0.164393
18661.76953 0.165231
18661.94922 0.166069
18662.14062 0.166929
18662.32031 0.167808
18662.50977 0.168687
18662.68945 0.169566
18662.88086 0.170445
18663.06055 0.171324
18663.25000 0.172193
18663.42969 0.173072
18663.61914 0.173951
18663.80078 0.17483
18663.99023 0.175709
18664.17969 0.176478
18664.35938 0.17724
18664.53906 0.177995
18664.73047 0.178758
18664.91992 0.17952
18665.09961 0.180283
18665.28906 0.181045
18665.47070 0.181808
18665.66016 0.182562
18665.83984 0.183325
18666.02930 0.184068
18666.21094 0.184702
18666.40039 0.185335
18666.58008 0.185968
18666.76953 0.186601
18666.94922 0.187227
18667.14062 0.187861
18667.32031 0.188494
18667.50977 0.189127
18667.69922 0.18976
18667.88086 0.190393
18668.07031 0.191029
18668.25000 0.191665
18668.43945 0.192307
18668.61914 0.19295
18668.81055 0.193592
18668.99023 0.194234
18669.17969 0.194877
18669.35938 0.195519
18669.55078 0.196161
18669.73047 0.196797
18669.91992 0.197439
18670.09961 0.197993
18670.28906 0.198478
18670.47070 0.198963
18670.66016 0.199448
18670.84961 0.199933
18671.02930 0.200417
18671.21094 0.200897
18671.40039 0.201382
18671.58984 0.201866
18671.76953 0.202351
18671.96094 0.202836
18672.14062 0.203386
18672.33008 0.203955
18672.50977 0.204524
18672.69922 0.205088
18672.88086 0.205657
18673.07031 0.206226
18673.25000 0.206796
18673.43945 0.207365
18673.61914 0.207934
18673.81055 0.208504
18674.00000 0.209073
18674.17969 0.209413
18674.36914 0.209745
18674.55078 0.21008
18674.74023 0.210416
18674.91992 0.210751
18675.10938 0.211086
18675.28906 0.211422
18675.48047 0.211757
18675.66016 0.212092
18675.84961 0.212427
18676.03906 0.21272
18676.22070 0.212832
18676.40039 0.212945
18676.58984 0.213057
18676.77930 0.21317
18676.96094 0.213283
18677.15039 0.213395
18677.33008 0.213508
18677.51953 0.213621
18677.69922 0.213733
18677.89062 0.213846
18678.07031 0.213898
18678.25977 0.213858
18678.43945 0.213818
18678.63086 0.213778
18678.81055 0.213737
18679.00000 0.213697
18679.18945 0.213657
18679.36914 0.213617
18679.56055 0.213577
18679.74023 0.213537
18679.92969 0.213497
18680.10938 0.213474
18680.30078 0.213462
18680.48047 0.21345
18680.66992 0.213438
18680.84961 0.213426
18681.03906 0.213414
18681.22070 0.213402
18681.41016 0.21339
18681.59961 0.213378
18681.77930 0.213366
18681.97070 0.213354
18682.15039 0.213248
18682.33984 0.213122
18682.51953 0.212996
18682.71094 0.21287
18682.89062 0.212744
18683.08008 0.212617
18683.26953 0.212491
18683.44922 0.212365
18683.63086 0.21224
18683.82031 0.212114
18684.00977 0.211985
18684.18945 0.211769
18684.38086 0.211553
18684.56055 0.211337
18684.75000 0.21112
18684.92969 0.210904
18685.11914 0.210688
18685.30078 0.210472
18685.49023 0.210256
18685.67969 0.210039
18685.85938 0.209823
18686.05078 0.209598
18686.23047 0.209345
18686.41992 0.209092
18686.59961 0.20884
18686.78906 0.208587
18686.97070 0.208334
18687.16016 0.208082
18687.33984 0.207832
18687.52930 0.207579
18687.71094 0.207326
18687.90039 0.207073
18688.08984 0.206852
18688.26953 0.206668
18688.46094 0.206483
18688.64062 0.206299
18688.83008 0.206114
18689.00977 0.20593
18689.19922 0.205745
18689.38086 0.205561
18689.57031 0.205376
18689.75977 0.205192
18689.93945 0.205008
18690.13086 0.204737
18690.31055 0.204427
18690.50000 0.204117
18690.67969 0.203807
18690.86914 0.203497
18691.05078 0.203187
18691.24023 0.202877
18691.42969 0.202567
18691.60938 0.202257
18691.80078 0.201947
18691.98047 0.201637
18692.16992 0.201312
18692.34961 0.200986
18692.53906 0.200661
18692.72070 0.200335
18692.91016 0.200009
18693.09961 0.199683
18693.27930 0.199357
18693.47070 0.199031
18693.65039 0.198705
18693.83984 0.198379
18694.01953 0.198076
18694.21094 0.197927
18694.39062 0.197778
18694.58008 0.197629
18694.76953 0.19748
18694.94922 0.197331
18695.14062 0.197182
18695.32031 0.197033
18695.50977 0.196884
18695.68945 0.196735
18695.88086 0.196586
18696.06055 0.196422
18696.25000 0.196227
18696.43945 0.196033
18696.61914 0.195839
18696.81055 0.195644
18696.99023 0.19545
18697.17969 0.195256
18697.35938 0.195061
18697.55078 0.194867
18697.73047 0.194673
18697.91992 0.194478
18698.10938 0.194299
18698.28906 0.19413
18698.48047 0.193961
18698.66016 0.193792
18698.84961 0.193623
18699.02930 0.193454
18699.22070 0.193285
18699.40039 0.193116
18699.58984 0.192947
18699.77930 0.192778
18699.96094 0.192609
18700.15039 0.192436
18700.33008 0.192262
18700.51953 0.192088
18700.69922 0.191914
18700.89062 0.19174
18701.07031 0.191566
18701.25977 0.191391
18701.44922 0.191218
18701.63086 0.191043
18701.82031 0.190869
18702.00000 0.190695
18702.18945 0.190536
18702.36914 0.190377
18702.56055 0.190215
18702.75000 0.190056
18702.92969 0.189897
18703.11914 0.189737
18703.30078 0.189578
18703.49023 0.189418
18703.66992 0.189259
18703.85938 0.1891
18704.03906 0.188965
18704.23047 0.188908
18704.41992 0.18885
18704.59961 0.188793
18704.78906 0.188736
18704.97070 0.188678
18705.16016 0.188621
18705.33984 0.188564
18705.52930 0.188507
18705.71094 0.188449
18705.90039 0.188392
18706.08984 0.18832
18706.26953 0.188231
18706.46094 0.188141
18706.64062 0.188052
18706.83008 0.187963
18707.01953 0.187873
18707.19922 0.187784
18707.39062 0.187695
18707.57031 0.187606
18707.75977 0.187517
18707.93945 0.187428
18708.13086 0.187402
18708.31055 0.187405
18708.50000 0.187407
18708.68945 0.18741
18708.86914 0.187412
18709.06055 0.187415
18709.24023 0.187417
18709.42969 0.18742
18709.61914 0.187423
18709.80078 0.187425
18709.99023 0.187428
18710.16992 0.187464
18710.35938 0.187503
18710.53906 0.187543
18710.73047 0.187582
18710.91016 0.187621
18711.09961 0.187661
18711.28906 0.1877
18711.47070 0.18774
18711.66016 0.187779
18711.83984 0.187819
18712.02930 0.187877
18712.21094 0.188038
18712.40039 0.188198
18712.58984 0.188359
18712.76953 0.188519
18712.96094 0.18868
18713.14062 0.18884
18713.33008 0.189001
18713.50977 0.189161
18713.69922 0.189324
18713.89062 0.189484
18714.07031 0.189572
18714.25977 0.189548
18714.43945 0.189523
18714.63086 0.189499
18714.81055 0.189474
18715.00000 0.18945
18715.18945 0.189425
18715.36914 0.189401
18715.56055 0.189376
18715.74023 0.189351
18715.92969 0.189327
18716.11914 0.189347
18716.30078 0.189394
18716.49023 0.189442
18716.66992 0.189489
18716.85938 0.189536
18717.03906 0.189584
18717.23047 0.189632
18717.41992 0.189679
18717.59961 0.189726
18717.78906 0.189774
18717.97070 0.189821
18718.16016 0.189912
18718.33984 0.190011
18718.52930 0.190109
18718.71094 0.190208
18718.90039 0.190307
18719.08984 0.190406
18719.26953 0.190505
18719.46094 0.190603
18719.64062 0.190702
18719.83008 0.190801
18720.01953 0.190907
18720.19922 0.191104
18720.39062 0.191303
18720.57031 0.191499
18720.75977 0.191696
18720.94922 0.191893
18721.13086 0.192089
18721.32031 0.192286
18721.50000 0.192483
18721.68945 0.192681
18721.88086 0.192878
18722.06055 0.193029
18722.25000 0.193086
18722.42969 0.193143
18722.61914 0.1932
18722.80078 0.193257
18722.99023 0.193314
18723.17969 0.193372
18723.35938 0.193429
18723.55078 0.193486
18723.73047 0.193543
18723.91992 0.1936
18724.09961 0.193734
18724.28906 0.19393
18724.48047 0.194123
18724.66016 0.194317
18724.84961 0.194511
18725.02930 0.194705
18725.22070 0.194899
18725.40039 0.195093
18725.58984 0.195289
18725.77930 0.195483
18725.96094 0.195676
18726.15039 0.196056
18726.33008 0.196483
18726.51953 0.19691
18726.71094 0.197341
18726.89062 0.197768
18727.08008 0.198194
18727.25977 0.198621
18727.44922 0.199048
18727.63086 0.199474
18727.82031 0.199906
18728.00977 0.20032
18728.18945 0.200465
18728.38086 0.20061
18728.56055 0.200755
18728.75000 0.2009
18728.93945 0.201047
18729.11914 0.201192
18729.31055 0.201337
18729.49023 0.201482
18729.67969 0.201626
18729.86914 0.201771
18730.05078 0.201934
18730.24023 0.202133
18730.41992 0.202333
18730.60938 0.202533
18730.78906 0.202733
18730.98047 0.202932
18731.16992 0.203134
18731.34961 0.203334
18731.53906 0.203534
18731.72070 0.203734
18731.91016 0.203934
18732.09961 0.204134
18732.27930 0.204332
18732.47070 0.20453
18732.65039 0.204728
18732.83984 0.204926
18733.02930 0.205126
18733.21094 0.205324
18733.40039 0.205522
18733.58008 0.205719
18733.76953 0.205917
18733.96094 0.206117
18734.14062 0.206347
18734.33008 0.206585
18734.50977 0.206824
18734.69922 0.207063
18734.89062 0.207305
18735.07031 0.207543
18735.25977 0.207782
18735.43945 0.208021
18735.63086 0.20826
18735.82031 0.208501
18736.00000 0.208739
18736.18945 0.208892
18736.36914 0.209044
18736.56055 0.209197
18736.75000 0.209351
18736.92969 0.209504
18737.11914 0.209657
18737.30078 0.209809
18737.49023 0.209962
18737.67969 0.210116
18737.85938 0.210269
18738.05078 0.210442
18738.23047 0.210676
18738.41992 0.210913
18738.60938 0.211147
18738.78906 0.211381
18738.98047 0.211616
18739.16016 0.21185
18739.34961 0.212087
18739.53906 0.212321
18739.72070 0.212555
18739.91016 0.212789
18740.08984 0.212989
18740.27930 0.213149
18740.46094 0.213309
18740.65039 0.21347
18740.83984 0.213632
18741.01953 0.213792
18741.21094 0.213953
18741.39062 0.214113
18741.58008 0.214274
18741.76953 0.214436
18741.94922 0.214596
18742.14062 0.214725
18742.32031 0.214844
18742.50977 0.214964
18742.69922 0.215083
18742.88086 0.215201
18743.07031 0.21532
18743.25977 0.21544
18743.43945 0.215558
18743.63086 0.215677
18743.81055 0.215796
18744.00000 0.215915
18744.18945 0.216045
18744.36914 0.216175
18744.56055 0.216305
18744.74023 0.216436
18744.92969 0.216565
18745.11914 0.216695
18745.30078 0.216825
18745.49023 0.216956
18745.66992 0.217085
18745.85938 0.217215
18746.03906 0.217333
18746.23047 0.217413
18746.41992 0.217492
18746.59961 0.217572
18746.78906 0.217651
18746.98047 0.217732
18747.16016 0.217811
18747.34961 0.217891
18747.53906 0.217971
18747.72070 0.218051
18747.91016 0.21813
18748.08984 0.218281
18748.27930 0.218507
18748.46094 0.218731
18748.65039 0.218954
18748.83984 0.219178
18749.01953 0.219404
18749.21094 0.219628
18749.39062 0.219852
18749.58008 0.220078
18749.76953 0.220302
18749.94922 0.220525
18750.14062 0.220611
18750.33008 0.22065
18750.50977 0.220688
18750.69922 0.220727
18750.88086 0.220766
18751.07031 0.220804
18751.25977 0.220843
18751.43945 0.220882
18751.63086 0.220921
18751.81055 0.220959
18752.00000 0.220998
18752.18945 0.221082
18752.36914 0.221165
18752.56055 0.221248
18752.74023 0.221331
18752.92969 0.221415
18753.11914 0.221498
18753.30078 0.221581
18753.49023 0.221665
18753.67969 0.221748
18753.85938 0.221831
18754.05078 0.221902
18754.23047 0.221937
18754.41992 0.221971
18754.60938 0.222005
18754.78906 0.22204
18754.98047 0.222074
18755.16016 0.222108
18755.34961 0.222142
18755.53906 0.222177
18755.72070 0.222211
18755.91016 0.222246
18756.09961 0.222252
18756.27930 0.222231
18756.47070 0.222211
18756.65039 0.22219
18756.83984 0.22217
18757.02930 0.22215
18757.21094 0.222129
18757.40039 0.222109
18757.58008 0.222088
18757.76953 0.222068
18757.96094 0.222047
18758.14062 0.222048
18758.33008 0.222056
18758.51953 0.222063
18758.69922 0.222071
18758.89062 0.222079
18759.07031 0.222086
18759.25977 0.222094
18759.44922 0.222101
18759.63086 0.222109
18759.82031 0.222116
18760.00977 0.222123
18760.18945 0.22211
18760.38086 0.222097
18760.56055 0.222083
18760.75000 0.22207
18760.93945 0.222057
18761.11914 0.222043
18761.31055 0.22203
18761.49023 0.222017
18761.67969 0.222003
18761.86914 0.22199
18762.05078 0.221965
18762.24023 0.221909
18762.42969 0.221855
18762.60938 0.2218
18762.80078 0.221744
18762.98047 0.221689
18763.16992 0.221635
18763.35938 0.221579
18763.53906 0.221524
18763.73047 0.221469
18763.91992 0.221414
18764.09961 0.221352
18764.28906 0.221283
18764.47070 0.221214
18764.66016 0.221146
18764.84961 0.221077
18765.02930 0.221009
18765.22070 0.220941
18765.41016 0.220872
18765.58984 0.220803
18765.77930 0.220735
18765.96094 0.220666
18766.15039 0.220597
18766.33984 0.220528
18766.51953 0.220458
18766.71094 0.220388
18766.89062 0.220319
18767.08008 0.220249
18767.26953 0.22018
18767.46094 0.22011
18767.64062 0.220041
18767.83008 0.219971
18768.00977 0.219897
18768.19922 0.219775
18768.38086 0.219652
18768.57031 0.219527
18768.75977 0.219405
18768.94922 0.21928
18769.13086 0.219158
18769.32031 0.219034
18769.50000 0.21891
18769.68945 0.218787
18769.86914 0.218665
18770.06055 0.218546
18770.25000 0.21844
18770.43945 0.218333
18770.61914 0.218227
18770.81055 0.218121
18770.99023 0.218014
18771.17969 0.217908
18771.36914 0.217801
18771.55078 0.217695
18771.74023 0.217588
18771.92969 0.217481
18772.10938 0.217397
18772.30078 0.217327
18772.48047 0.217256
18772.66992 0.217186
18772.85938 0.217114
18773.03906 0.217044
18773.23047 0.216974
18773.41992 0.216903
18773.59961 0.216833
18773.78906 0.216762
18773.97070 0.216692
18774.16016 0.216597
18774.34961 0.216498
18774.52930 0.216399
18774.72070 0.2163
18774.91016 0.216201
18775.08984 0.216103
18775.27930 0.216003
18775.46094 0.215905
18775.65039 0.215805
18775.83984 0.215707
18776.02930 0.215616
18776.21094 0.215584
18776.40039 0.215552
18776.58008 0.21552
18776.76953 0.215488
18776.96094 0.215456
18777.14062 0.215424
18777.33008 0.215392
18777.51953 0.215359
18777.69922 0.215327
18777.89062 0.215295
18778.07031 0.215204
18778.25977 0.215023
18778.44922 0.214843
18778.63086 0.214664
18778.82031 0.214483
18779.00977 0.214304
18779.18945 0.214122
18779.38086 0.213943
18779.57031 0.213762
18779.75000 0.213582
18779.93945 0.213403
18780.13086 0.213254
18780.31055 0.213122
18780.50000 0.212989
18780.67969 0.212857
18780.86914 0.212724
18781.06055 0.212593
18781.24023 0.212461
18781.42969 0.212328
18781.61914 0.212196
18781.80078 0.212063
18781.99023 0.211931
18782.17969 0.2118
18782.35938 0.211671
18782.55078 0.21154
18782.73047 0.211411
18782.91992 0.211281
18783.10938 0.21115
18783.28906 0.211021
18783.48047 0.21089
18783.66992 0.21076
18783.84961 0.21063
18784.03906 0.21051
18784.23047 0.210427
18784.41016 0.210345
18784.59961 0.210263
18784.78906 0.210181
18784.97070 0.210099
18785.16016 0.210016
18785.33984 0.209934
18785.52930 0.209851
18785.72070 0.209769
18785.90039 0.209686
18786.08984 0.209591
18786.27930 0.20948
18786.46094 0.20937
18786.65039 0.209259
18786.83984 0.20915
18787.01953 0.209039
18787.21094 0.208929
18787.39062 0.20882
18787.58008 0.208709
18787.76953 0.208599
18787.96094 0.208489
18788.14062 0.20842
18788.33008 0.208365
18788.50977 0.20831
18788.69922 0.208255
18788.89062 0.2082
18789.07031 0.208144
18789.25977 0.208089
18789.44922 0.208034
18789.63086 0.207979
18789.82031 0.207923
18790.00977 0.207868
18790.18945 0.207796
18790.38086 0.207726
18790.57031 0.207654
18790.75000 0.207583
18790.93945 0.207512
18791.13086 0.207441
18791.31055 0.207369
18791.50000 0.207299
18791.68945 0.207227
18791.86914 0.207156
18792.06055 0.207079
18792.24023 0.206987
18792.42969 0.206896
18792.61914 0.206804
18792.80078 0.206713
18792.99023 0.206621
18793.17969 0.206529
18793.35938 0.206437
18793.55078 0.206346
18793.74023 0.206254
18793.91992 0.206163
18794.10938 0.206067
18794.28906 0.205971
18794.48047 0.205873
18794.66992 0.205776
18794.85938 0.205679
18795.03906 0.205581
18795.23047 0.205484
18795.41992 0.205387
18795.59961 0.20529
18795.78906 0.205192
18795.97070 0.205096
18796.16016 0.205115
18796.34961 0.205151
18796.53906 0.205189
18796.72070 0.205225
18796.91016 0.205262
18797.08984 0.205299
18797.27930 0.205337
18797.47070 0.205373
18797.65039 0.20541
18797.83984 0.205447
18798.02930 0.205478
18798.21094 0.205471
18798.40039 0.205464
18798.58984 0.205457
18798.76953 0.20545
18798.96094 0.205443
18799.15039 0.205435
18799.33008 0.205428
18799.51953 0.205421
18799.71094 0.205414
18799.89062 0.205407
18800.08008 0.205367
18800.26953 0.205284
18800.44922 0.2052
18800.64062 0.205118
18800.83008 0.205034
18801.00977 0.204951
18801.19922 0.204867
18801.38086 0.204784
18801.57031 0.204701
18801.75977 0.204618
18801.94922 0.204534
18802.13086 0.204494
18802.32031 0.204472
18802.50977 0.20445
18802.68945 0.204427
18802.88086 0.204405
18803.06055 0.204383
18803.25000 0.204361
18803.43945 0.204339
18803.61914 0.204316
18803.81055 0.204294
18804.00000 0.204272
18804.18945 0.204142
18804.36914 0.204013
18804.56055 0.203882
18804.74023 0.203753
18804.92969 0.203622
18805.11914 0.203493
18805.30078 0.203362
18805.49023 0.203233
18805.67969 0.203102
18805.86914 0.202971
18806.05078 0.202871
18806.24023 0.202846
18806.41992 0.202821
18806.60938 0.202797
18806.80078 0.202772
18806.98047 0.202748
18807.16992 0.202723
18807.35938 0.202699
18807.53906 0.202674
18807.73047 0.20265
18807.91992 0.202625
18808.09961 0.202586
18808.28906 0.202534
18808.48047 0.202482
18808.66016 0.20243
18808.84961 0.202378
18809.03906 0.202327
18809.22070 0.202274
18809.41016 0.202223
18809.59961 0.202171
18809.78906 0.202119
18809.97070 0.202067
18810.16016 0.20195
18810.33984 0.201822
18810.52930 0.201692
18810.72070 0.201563
18810.90039 0.201434
18811.08984 0.201305
18811.27930 0.201177
18811.46094 0.201047
18811.65039 0.200918
18811.83984 0.200789
18812.02930 0.200656
18812.21094 0.200502
18812.40039 0.200346
18812.58984 0.20019
18812.76953 0.200035
18812.96094 0.199879
18813.14062 0.199725
18813.33008 0.199569
18813.51953 0.199412
18813.71094 0.199258
18813.89062 0.199102
18814.08008 0.198958
18814.26953 0.198825
18814.44922 0.198693
18814.64062 0.198562
18814.83008 0.19843
18815.00977 0.198299
18815.19922 0.198167
18815.39062 0.198034
18815.57031 0.197904
18815.75977 0.197771
18815.94922 0.19764
18816.13086 0.197443
18816.32031 0.197219
18816.50977 0.196998
18816.68945 0.196774
18816.88086 0.19655
18817.07031 0.196329
18817.25000 0.196105
18817.43945 0.195884
18817.63086 0.19566
18817.81055 0.195436
18818.00000 0.195215
18818.18945 0.194919
18818.38086 0.194624
18818.56055 0.194332
18818.75000 0.194037
18818.92969 0.193744
18819.11914 0.193449
18819.31055 0.193154
18819.49023 0.192862
18819.67969 0.192567
18819.86914 0.192271
18820.05078 0.191956
18820.24023 0.191582
18820.42969 0.191212
18820.61914 0.190838
18820.80078 0.190464
18820.99023 0.190094
18821.17969 0.18972
18821.35938 0.189347
18821.55078 0.188976
18821.74023 0.188603
18821.91992 0.188229
18822.10938 0.187819
18822.30078 0.187378
18822.48047 0.186936
18822.66992 0.186499
18822.85938 0.186058
18823.03906 0.185621
18823.23047 0.185179
18823.41992 0.184738
18823.59961 0.184301
18823.78906 0.18386
18823.98047 0.183418
18824.16016 0.182988
18824.34961 0.182553
18824.53906 0.182119
18824.72070 0.181689
18824.91016 0.181255
18825.09961 0.180821
18825.28906 0.180391
18825.47070 0.179957
18825.66016 0.179522
18825.84961 0.179093
18826.02930 0.178655
18826.22070 0.178205
18826.41016 0.17776
18826.58984 0.17731
18826.77930 0.176859
18826.97070 0.176414
18827.15039 0.175963
18827.33984 0.175513
18827.52930 0.175068
18827.71094 0.174618
18827.90039 0.174167
18828.08984 0.173657
18828.27930 0.17307
18828.46094 0.172483
18828.65039 0.171902
18828.83984 0.171315
18829.01953 0.170728
18829.21094 0.170146
18829.40039 0.169559
18829.58008 0.168972
18829.76953 0.168385
18829.96094 0.167804
18830.14062 0.167171
18830.33008 0.166525
18830.51953 0.165886
18830.71094 0.165241
18830.89062 0.164595
18831.08008 0.163956
18831.26953 0.16331
18831.44922 0.162664
18831.64062 0.162025
18831.83008 0.161379
18832.00977 0.160723
18832.19922 0.159942
18832.39062 0.15917
18832.57031 0.158389
18832.75977 0.157608
18832.94922 0.156835
18833.13086 0.156055
18833.32031 0.155274
18833.50977 0.154501
18833.69922 0.15372
18833.88086 0.15294
18834.07031 0.15208
18834.25977 0.1511
18834.43945 0.15011
18834.63086 0.14912
18834.82031 0.14814
18835.00000 0.14715
18835.18945 0.14616
18835.38086 0.14517
18835.56055 0.14419
18835.75000 0.1432
18835.93945 0.14221
18836.11914 0.141317
18836.31055 0.140457
18836.50000 0.139597
18836.68945 0.138737
18836.86914 0.137885
18837.06055 0.137025
18837.25000 0.136165
18837.42969 0.135315
18837.61914 0.134455
18837.81055 0.133595
18838.00000 0.132735
18838.17969 0.13176
18838.36914 0.130773
18838.56055 0.129785
18838.74023 0.128798
18838.92969 0.12782
18839.11914 0.126833
18839.30078 0.125845
18839.49023 0.124868
18839.67969 0.123881
18839.86914 0.122893
18840.05078 0.121961
18840.24023 0.121179
18840.42969 0.120388
18840.60938 0.119597
18840.80078 0.118807
18840.99023 0.118024
18841.16992 0.117234
18841.35938 0.116443
18841.55078 0.115652
18841.73047 0.11487
18841.91992 0.114079
18842.10938 0.11326
18842.30078 0.112419
18842.48047 0.111588
18842.66992 0.110748
18842.85938 0.109908
18843.03906 0.109067
18843.23047 0.108236
18843.41992 0.107396
18843.60938 0.106555
18843.78906 0.105715
18843.98047 0.104884
18844.16992 0.104213
18844.34961 0.103565
18844.53906 0.102916
18844.73047 0.102274
18844.91016 0.101625
18845.09961 0.100976
18845.28906 0.100328
18845.47070 0.099686
18845.66016 0.099037
18845.84961 0.098389
18846.03906 0.097722
18846.22070 0.096982
18846.41016 0.09625
18846.59961 0.095511
18846.78906 0.094771
18846.97070 0.094031
18847.16016 0.093299
18847.34961 0.09256
18847.52930 0.09182
18847.72070 0.09108
18847.91016 0.090348
18848.08984 0.089568
18848.27930 0.088746
18848.47070 0.087925
18848.66016 0.087103
18848.83984 0.08629
18849.02930 0.085469
18849.22070 0.084647
18849.40039 0.083826
18849.58984 0.083004
18849.77930 0.082191
18849.96094 0.08137
18850.15039 0.080548
18850.33984 0.079727
18850.52930 0.078914
18850.71094 0.078092
18850.90039 0.077271
18851.08984 0.07645
18851.27930 0.075628
18851.46094 0.074815
18851.65039 0.073994
18851.83984 0.073172
18852.01953 0.072374
18852.21094 0.071735
18852.40039 0.071102
18852.58008 0.070463
18852.76953 0.069824
18852.96094 0.069185
18853.15039 0.068546
18853.33008 0.067913
18853.51953 0.067274
18853.71094 0.066635
18853.89062 0.065996
18854.08008 0.065373
18854.26953 0.064776
18854.46094 0.064172
18854.64062 0.063569
18854.83008 0.062965
18855.01953 0.062362
18855.21094 0.061759
18855.39062 0.061162
18855.58008 0.060558
18855.76953 0.059955
18855.94922 0.059352
18856.14062 0.058726
18856.33008 0.0581
18856.50977 0.057467
18856.69922 0.056835
18856.89062 0.056202
18857.08008 0.055569
18857.25977 0.054937
18857.44922 0.054311
18857.64062 0.053678
18857.82031 0.053045
18858.00977 0.052422
18858.19922 0.051948
18858.39062 0.051473
18858.57031 0.051003
18858.75977 0.050528
18858.94922 0.050053
18859.13086 0.049579
18859.32031 0.049104
18859.50977 0.048629
18859.69922 0.048159
18859.88086 0.047684
18860.07031 0.047176
18860.25977 0.046611
18860.44922 0.046047
18860.63086 0.045482
18860.82031 0.044923
18861.00977 0.044358
18861.18945 0.043794
18861.38086 0.043229
18861.57031 0.042664
18861.75977 0.0421
18861.93945 0.041541
18862.13086 0.041077
18862.32031 0.040659
18862.50000 0.040241
18862.68945 0.039823
18862.88086 0.039405
18863.07031 0.038987
18863.25000 0.038574
18863.43945 0.038156
18863.63086 0.037738
18863.81055 0.03732
18864.00000 0.036902
18864.18945 0.036481
18864.38086 0.036061
18864.56055 0.035645
18864.75000 0.035224
18864.93945 0.034804
18865.11914 0.034384
18865.31055 0.033963
18865.50000 0.033543
18865.68945 0.033122
18865.86914 0.032702
18866.06055 0.032327
18866.25000 0.032032
18866.43945 0.031738
18866.61914 0.031443
18866.81055 0.031149
18867.00000 0.030855
18867.18945 0.03056
18867.36914 0.030269
18867.56055 0.029974
18867.75000 0.02968
18867.92969 0.029386
18868.11914 0.029067
18868.31055 0.028734
18868.50000 0.028402
18868.67969 0.02807
18868.86914 0.027738
18869.06055 0.027409
18869.24023 0.027076
18869.42969 0.026744
18869.61914 0.026412
18869.81055 0.02608
18869.99023 0.025747
18870.17969 0.025513
18870.36914 0.025282
18870.56055 0.025051
18870.74023 0.024822
18870.92969 0.024591
18871.11914 0.02436
18871.30078 0.024128
18871.49023 0.023897
18871.67969 0.023666
18871.86914 0.023435
18872.05078 0.023206
18872.24023 0.022981
18872.42969 0.022758
18872.61914 0.022533
18872.80078 0.022308
18872.99023 0.022084
18873.17969 0.021859
18873.36914 0.021634
18873.55078 0.021409
18873.74023 0.021184
18873.92969 0.020959
18874.11914 0.020718
18874.30078 0.020466
18874.49023 0.020217
18874.67969 0.019966
18874.85938 0.019714
18875.05078 0.019463
18875.24023 0.019211
18875.42969 0.01896
18875.60938 0.018708
18875.80078 0.018457
18875.99023 0.018205
18876.17969 0.018035
18876.35938 0.017869
18876.55078 0.017704
18876.74023 0.017541
18876.91992 0.017376
18877.10938 0.017211
18877.30078 0.017045
18877.49023 0.01688
18877.66992 0.016715
18877.85938 0.01655
18878.05078 0.016383
18878.24023 0.016214
18878.41992 0.016044
18878.60938 0.015874
18878.80078 0.015704
18878.99023 0.015534
18879.16992 0.015364
18879.35938 0.015194
18879.55078 0.015026
18879.73047 0.014857
18879.91992 0.014687
18880.10938 0.014538
18880.30078 0.014404
18880.48047 0.01427
18880.66992 0.014135
18880.85938 0.014001
18881.05078 0.013867
18881.23047 0.013733
18881.41992 0.013599
18881.60938 0.013465
18881.80078 0.013331
18881.98047 0.013197
18882.16992 0.013156
18882.35938 0.013124
18882.55078 0.013092
18882.73047 0.01306
18882.91992 0.013028
18883.10938 0.012996
18883.28906 0.012964
18883.48047 0.012932
18883.66992 0.0129
18883.85938 0.012868
18884.03906 0.012813
18884.23047 0.012684
18884.41992 0.012555
18884.60938 0.012425
18884.78906 0.012296
18884.98047 0.012167
18885.16992 0.012038
18885.35938 0.011909
18885.53906 0.011779
18885.73047 0.01165
18885.91992 0.011521
18886.10938 0.011383
18886.28906 0.011239
18886.48047 0.011094
18886.66992 0.01095
18886.85938 0.010806
18887.03906 0.010661
18887.23047 0.010517
18887.41992 0.010372
18887.60938 0.010228
18887.78906 0.010084
18887.98047 0.009939
18888.16992 0.009813
18888.35938 0.009689
18888.53906 0.009564
18888.73047 0.00944
18888.91992 0.009316
18889.10938 0.009191
18889.28906 0.009067
18889.48047 0.008943
18889.66992 0.008818
18889.85938 0.008694
18890.03906 0.008583
18890.23047 0.008509
18890.41992 0.008436
18890.60938 0.008362
18890.78906 0.008289
18890.98047 0.008215
18891.16992 0.008142
18891.35938 0.008068
18891.53906 0.007995
18891.73047 0.007921
18891.91992 0.007848
18892.10938 0.007807
18892.28906 0.007791
18892.48047 0.007775
18892.66992 0.007759
18892.85938 0.007743
18893.03906 0.007727
18893.23047 0.007711
18893.41992 0.007694
18893.60938 0.007678
18893.78906 0.007662
18893.98047 0.007646
18894.16992 0.007623
18894.35938 0.007598
18894.53906 0.007574
18894.73047 0.00755
18894.91992 0.007526
18895.10938 0.007501
18895.28906 0.007477
18895.48047 0.007453
18895.66992 0.007429
18895.85938 0.007404
18896.03906 0.00737
18896.23047 0.007303
18896.41992 0.007237
18896.60938 0.00717
18896.78906 0.007103
18896.98047 0.007037
18897.16992 0.00697
18897.35938 0.006904
18897.53906 0.006837
18897.73047 0.006771
18897.91992 0.006704
18898.10938 0.006608
18898.28906 0.006489
18898.48047 0.00637
18898.66992 0.006251
18898.85938 0.006133
18899.03906 0.006014
18899.23047 0.005895
18899.41992 0.005777
18899.60938 0.005658
18899.78906 0.005539
18899.98047 0.00542
18900.16992 0.005298
18900.35938 0.005175
18900.55078 0.005051
18900.73047 0.004928
18900.91992 0.004805
18901.10938 0.004682
18901.30078 0.004559
18901.48047 0.004436
18901.66992 0.004314
18901.85938 0.004191
18902.05078 0.004109
18902.23047 0.004152
18902.41992 0.004195
18902.60938 0.004238
18902.80078 0.004281
18902.98047 0.004324
18903.16992 0.004367
18903.35938 0.004409
18903.55078 0.004452
18903.73047 0.004495
18903.91992 0.004538
18904.10938 0.004488
18904.30078 0.004373
18904.49023 0.004258
18904.66992 0.004143
18904.85938 0.004028
18905.05078 0.003913
18905.24023 0.003798
18905.41992 0.003683
18905.60938 0.003568
18905.80078 0.003453
18905.99023 0.003338
18906.16992 0.003372
18906.35938 0.003418
18906.55078 0.003464
18906.74023 0.003511
18906.92969 0.003557
18907.10938 0.003603
18907.30078 0.00365
18907.49023 0.003696
18907.67969 0.003742
18907.85938 0.003788
18908.05078 0.003811
18908.24023 0.003773
18908.42969 0.003735
18908.60938 0.003697
18908.80078 0.003659
18908.99023 0.00362
18909.17969 0.003582
18909.36914 0.003544
18909.55078 0.003506
18909.74023 0.003468
18909.92969 0.003429
18910.11914 0.003407
18910.30078 0.003394
18910.49023 0.003381
18910.67969 0.003368
18910.86914 0.003355
18911.05078 0.003341
18911.24023 0.003328
18911.42969 0.003315
18911.61914 0.003302
18911.80078 0.003289
18911.99023 0.003276
18912.17969 0.003226
18912.36914 0.003174
18912.55078 0.003122
18912.74023 0.003069
18912.92969 0.003017
18913.11914 0.002965
18913.31055 0.002913
18913.49023 0.002861
18913.67969 0.002809
18913.86914 0.002756
18914.06055 0.002697
18914.24023 0.002621
18914.42969 0.002544
18914.61914 0.002467
18914.81055 0.002391
18915.00000 0.002315
18915.17969 0.002238
18915.36914 0.002162
18915.56055 0.002086
18915.75000 0.002009
18915.92969 0.001933
18916.11914 0.001965
18916.31055 0.002054
18916.50000 0.002144
18916.68945 0.002233
18916.86914 0.002323
18917.06055 0.002412
18917.25000 0.002502
18917.43945 0.002591
18917.61914 0.002682
18917.81055 0.002771
18918.00000 0.002861
18918.18945 0.002812
18918.38086 0.002764
18918.56055 0.002716
18918.75000 0.002667
18918.93945 0.002618
18919.13086 0.00257
18919.31055 0.002521
18919.50000 0.002473
18919.68945 0.002425
18919.88086 0.002376
18920.06055 0.00232
18920.25000 0.002247
18920.43945 0.002174
18920.63086 0.002101
18920.82031 0.002029
18921.00000 0.001956
18921.18945 0.001884
18921.38086 0.001811
18921.57031 0.001738
18921.75977 0.001666
18921.93945 0.001593
18922.13086 0.001584
18922.32031 0.001602
18922.50977 0.00162
18922.68945 0.001638
18922.88086 0.001656
18923.07031 0.001674
18923.25977 0.001692
18923.44922 0.00171
18923.63086 0.001728
18923.82031 0.001746
18924.00977 0.001766
18924.19922 0.001824
18924.38086 0.001882
18924.57031 0.00194
18924.75977 0.001997
18924.94922 0.002055
18925.14062 0.002114
18925.32031 0.002172
18925.50977 0.002229
18925.69922 0.002287
18925.89062 0.002345
18926.07031 0.002351
18926.25977 0.002278
18926.44922 0.002206
18926.64062 0.002134
18926.83008 0.002062
18927.00977 0.00199
18927.19922 0.001917
18927.39062 0.001845
18927.58008 0.001773
18927.76953 0.0017
18927.94922 0.001628
18928.14062 0.001599
18928.33008 0.001583
18928.51953 0.001568
18928.71094 0.001553
18928.89062 0.001538
18929.08008 0.001523
18929.26953 0.001507
18929.46094 0.001492
18929.64062 0.001477
18929.83008 0.001462
18930.01953 0.001452
18930.21094 0.001494
18930.40039 0.001536
18930.58008 0.001578
18930.76953 0.001619
18930.96094 0.001661
18931.15039 0.001703
18931.33984 0.001744
18931.51953 0.001786
18931.71094 0.001828
18931.90039 0.001869
18932.08984 0.001862
18932.27930 0.001798
18932.46094 0.001734
18932.65039 0.00167
18932.83984 0.001606
18933.02930 0.001541
18933.21094 0.001477
18933.40039 0.001414
18933.58984 0.00135
18933.77930 0.001286
18933.97070 0.001221
18934.15039 0.001201
18934.33984 0.00119
18934.52930 0.00118
18934.72070 0.001169
18934.91016 0.001158
18935.08984 0.001148
18935.27930 0.001137
18935.47070 0.001127
18935.66016 0.001116
18935.84961 0.001105
18936.02930 0.001106
18936.22070 0.001162
18936.41016 0.001219
18936.59961 0.001275
18936.78906 0.001331
18936.97070 0.001387
18937.16016 0.001443
18937.34961 0.0015
18937.53906 0.001556
18937.72070 0.001612
18937.91016 0.001668
18938.09961 0.001659
18938.28906 0.001594
18938.48047 0.001529
18938.66016 0.001465
18938.84961 0.001399
18939.03906 0.001334
18939.23047 0.00127
18939.41992 0.001205
18939.60938 0.00114
18939.78906 0.001075
18939.98047 0.00101
18940.16992 0.000945
18940.35938 0.000879
18940.53906 0.000813
18940.73047 0.000747
18940.91992 0.000681
18941.10938 0.000616
18941.30078 0.000549
18941.48047 0.000484
18941.66992 0.000418
20835.83594 0.0
