# %ECSV 0.9
# ---
# datatype:
# - {name: wavelength, unit: Angstrom, datatype: float32}
# - {name: response, datatype: float32}
# meta: !!omap
# - {band_name: F190N}
# - {group_name: NICMOS1}
wavelength response
18754.03906 0.0
18754.24023 3.5e-05
18754.43945 0.000102
18754.64062 0.000167
18754.83008 0.000233
18755.02930 0.000299
18755.23047 0.000365
18755.42969 0.000431
18755.63086 0.000497
18755.82031 0.000563
18756.01953 0.000621
18756.22070 0.000609
18756.41992 0.000598
18756.61914 0.000587
18756.81055 0.000575
18757.00977 0.000564
18757.21094 0.000553
18757.41016 0.000541
18757.59961 0.00053
18757.80078 0.000519
18758.00000 0.000507
18758.19922 0.000453
18758.40039 0.000399
18758.58984 0.000345
18758.78906 0.000291
18758.99023 0.000236
18759.18945 0.000182
18759.38086 0.000128
18759.58008 7.4e-05
18759.77930 2e-05
18759.98047 0.0
18760.17969 3.7e-05
18760.38086 0.000125
18760.57031 0.000212
18760.76953 0.000299
18760.97070 0.000387
18761.16992 0.000474
18761.35938 0.000561
18761.56055 0.000649
18761.75977 0.000736
18761.96094 0.000823
18762.16016 0.000823
18762.34961 0.000799
18762.55078 0.000776
18762.75000 0.000752
18762.94922 0.000728
18763.14062 0.000704
18763.33984 0.00068
18763.53906 0.000656
18763.74023 0.000632
18763.93945 0.000608
18764.13086 0.000617
18764.33008 0.000642
18764.52930 0.000666
18764.73047 0.00069
18764.92969 0.000714
18765.11914 0.000739
18765.32031 0.000763
18765.51953 0.000787
18765.72070 0.000812
18765.91992 0.000836
18766.10938 0.000832
18766.31055 0.000807
18766.50977 0.000783
18766.71094 0.000759
18766.91016 0.000734
18767.09961 0.000709
18767.30078 0.000685
18767.50000 0.00066
18767.69922 0.000636
18767.90039 0.000611
18768.08984 0.000594
18768.28906 0.000585
18768.49023 0.000576
18768.68945 0.000567
18768.88086 0.000557
18769.08008 0.000548
18769.27930 0.000539
18769.48047 0.00053
18769.67969 0.000521
18769.86914 0.000512
18770.07031 0.000494
18770.26953 0.000461
18770.47070 0.000428
18770.66992 0.000395
18770.86914 0.000363
18771.06055 0.00033
18771.25977 0.000297
18771.46094 0.000265
18771.66016 0.000232
18771.85938 0.000199
18772.05078 0.000197
18772.25000 0.00028
18772.44922 0.000362
18772.65039 0.000445
18772.84961 0.000527
18773.03906 0.000609
18773.24023 0.000692
18773.43945 0.000774
18773.64062 0.000857
18773.83984 0.000939
18774.02930 0.000999
18774.23047 0.000948
18774.42969 0.000898
18774.63086 0.000847
18774.83008 0.000797
18775.01953 0.000746
18775.22070 0.000696
18775.41992 0.000645
18775.61914 0.000595
18775.82031 0.000544
18776.00977 0.000501
18776.21094 0.000542
18776.41016 0.000584
18776.60938 0.000625
18776.81055 0.000667
18777.00000 0.000708
18777.19922 0.00075
18777.40039 0.000791
18777.59961 0.000833
18777.80078 0.000874
18777.99023 0.000916
18778.18945 0.000944
18778.39062 0.000972
18778.58984 0.001
18778.78906 0.001027
18778.98047 0.001055
18779.17969 0.001083
18779.38086 0.00111
18779.58008 0.001138
18779.77930 0.001166
18779.98047 0.001194
18780.16992 0.001174
18780.36914 0.001147
18780.57031 0.001121
18780.76953 0.001094
18780.97070 0.001068
18781.16016 0.001041
18781.35938 0.001015
18781.56055 0.000988
18781.75977 0.000962
18781.96094 0.000935
18782.15039 0.000914
18782.34961 0.000894
18782.55078 0.000874
18782.75000 0.000854
18782.94922 0.000834
18783.15039 0.000813
18783.33984 0.000793
18783.53906 0.000773
18783.74023 0.000753
18783.93945 0.000733
18784.14062 0.000734
18784.33008 0.000743
18784.52930 0.000753
18784.73047 0.000763
18784.92969 0.000773
18785.13086 0.000783
18785.32031 0.000793
18785.51953 0.000803
18785.72070 0.000813
18785.91992 0.000823
18786.11914 0.000814
18786.32031 0.000792
18786.50977 0.000771
18786.71094 0.000749
18786.91016 0.000727
18787.10938 0.000705
18787.31055 0.000684
18787.50000 0.000662
18787.69922 0.00064
18787.90039 0.000619
18788.09961 0.000602
18788.30078 0.00059
18788.50000 0.000579
18788.68945 0.000567
18788.89062 0.000556
18789.08984 0.000544
18789.28906 0.000533
18789.49023 0.000521
18789.68945 0.00051
18789.88086 0.000498
18790.08008 0.000525
18790.27930 0.000606
18790.48047 0.000688
18790.67969 0.000769
18790.88086 0.000851
18791.07031 0.000932
18791.26953 0.001013
18791.47070 0.001094
18791.66992 0.001176
18791.86914 0.001257
18792.06055 0.00133
18792.25977 0.001384
18792.46094 0.001439
18792.66016 0.001493
18792.85938 0.001548
18793.05078 0.001602
18793.25000 0.001656
18793.44922 0.001711
18793.65039 0.001765
18793.84961 0.00182
18794.03906 0.001856
18794.24023 0.001831
18794.43945 0.001807
18794.64062 0.001782
18794.83984 0.001757
18795.03906 0.001732
18795.23047 0.001708
18795.42969 0.001683
18795.63086 0.001658
18795.83008 0.001633
18796.02930 0.001607
18796.23047 0.001577
18796.42969 0.001547
18796.61914 0.001517
18796.82031 0.001487
18797.01953 0.001457
18797.22070 0.001426
18797.41992 0.001396
18797.61914 0.001366
18797.81055 0.001336
18798.00977 0.001311
18798.21094 0.001363
18798.41016 0.001416
18798.60938 0.001469
18798.80078 0.001522
18799.00000 0.001575
18799.19922 0.001628
18799.40039 0.001681
18799.59961 0.001734
18799.78906 0.001787
18799.99023 0.00184
18800.18945 0.00184
18800.39062 0.001839
18800.58984 0.001837
18800.78906 0.001836
18800.99023 0.001834
18801.17969 0.001833
18801.38086 0.001832
18801.58008 0.00183
18801.77930 0.001829
18801.98047 0.001828
18802.17969 0.001806
18802.36914 0.001782
18802.57031 0.001757
18802.76953 0.001733
18802.97070 0.001709
18803.16992 0.001685
18803.36914 0.00166
18803.56055 0.001636
18803.75977 0.001612
18803.96094 0.001588
18804.16016 0.001625
18804.35938 0.001677
18804.56055 0.001729
18804.75000 0.001781
18804.94922 0.001834
18805.15039 0.001886
18805.34961 0.001938
18805.55078 0.00199
18805.75000 0.002043
18805.93945 0.002095
18806.14062 0.002106
18806.33984 0.002101
18806.53906 0.002096
18806.74023 0.002091
18806.93945 0.002086
18807.13086 0.002081
18807.33008 0.002076
18807.52930 0.002071
18807.73047 0.002066
18807.92969 0.002061
18808.13086 0.002129
18808.32031 0.002236
18808.51953 0.002344
18808.72070 0.002451
18808.91992 0.002559
18809.11914 0.002667
18809.32031 0.002775
18809.51953 0.002883
18809.71094 0.00299
18809.91016 0.003098
18810.10938 0.003091
18810.31055 0.002994
18810.50977 0.002895
18810.71094 0.002798
18810.90039 0.0027
18811.09961 0.002601
18811.30078 0.002504
18811.50000 0.002406
18811.69922 0.002308
18811.90039 0.00221
18812.08984 0.002218
18812.28906 0.002344
18812.49023 0.00247
18812.68945 0.002594
18812.89062 0.00272
18813.08984 0.002846
18813.28906 0.00297
18813.48047 0.003096
18813.67969 0.00322
18813.88086 0.003346
18814.08008 0.003401
18814.27930 0.003352
18814.48047 0.003302
18814.66992 0.003252
18814.86914 0.003202
18815.07031 0.003152
18815.26953 0.003103
18815.47070 0.003053
18815.66992 0.003003
18815.86914 0.002953
18816.06055 0.002917
18816.25977 0.002908
18816.46094 0.002898
18816.66016 0.002889
18816.85938 0.00288
18817.06055 0.002871
18817.25000 0.002862
18817.44922 0.002853
18817.65039 0.002843
18817.84961 0.002834
18818.05078 0.002849
18818.25000 0.002937
18818.44922 0.003024
18818.64062 0.003112
18818.83984 0.0032
18819.03906 0.003288
18819.24023 0.003376
18819.43945 0.003463
18819.64062 0.003551
18819.83984 0.003639
18820.02930 0.003715
18820.23047 0.003734
18820.42969 0.003752
18820.63086 0.003771
18820.83008 0.00379
18821.02930 0.003808
18821.22070 0.003827
18821.41992 0.003845
18821.61914 0.003864
18821.82031 0.003883
18822.01953 0.003904
18822.22070 0.003954
18822.41992 0.004005
18822.61914 0.004056
18822.81055 0.004106
18823.00977 0.004156
18823.21094 0.004207
18823.41016 0.004257
18823.60938 0.004307
18823.81055 0.004358
18824.00000 0.004408
18824.19922 0.004441
18824.40039 0.004474
18824.59961 0.004507
18824.80078 0.00454
18825.00000 0.004573
18825.19922 0.004605
18825.39062 0.004638
18825.58984 0.004671
18825.78906 0.004704
18825.99023 0.004737
18826.18945 0.004683
18826.39062 0.004624
18826.58984 0.004565
18826.78906 0.004506
18826.98047 0.004448
18827.17969 0.004389
18827.38086 0.00433
18827.58008 0.004272
18827.77930 0.004213
18827.98047 0.004154
18828.17969 0.004229
18828.36914 0.004322
18828.57031 0.004415
18828.76953 0.004508
18828.97070 0.004601
18829.16992 0.004694
18829.36914 0.004787
18829.56055 0.004879
18829.75977 0.004973
18829.96094 0.005066
18830.16016 0.005145
18830.35938 0.005221
18830.56055 0.005297
18830.75977 0.005374
18830.96094 0.005449
18831.15039 0.005525
18831.34961 0.005602
18831.55078 0.005677
18831.75000 0.005753
18831.94922 0.00583
18832.15039 0.00585
18832.34961 0.005852
18832.53906 0.005854
18832.74023 0.005855
18832.93945 0.005857
18833.14062 0.005858
18833.33984 0.00586
18833.53906 0.005861
18833.74023 0.005863
18833.93945 0.005865
18834.13086 0.00597
18834.33008 0.006123
18834.52930 0.006277
18834.73047 0.006432
18834.92969 0.006585
18835.13086 0.006739
18835.33008 0.006894
18835.52930 0.007048
18835.72070 0.007201
18835.91992 0.007355
18836.11914 0.007406
18836.32031 0.007388
18836.51953 0.007371
18836.72070 0.007354
18836.91992 0.007337
18837.10938 0.00732
18837.31055 0.007303
18837.50977 0.007285
18837.71094 0.007268
18837.91016 0.007251
18838.10938 0.007312
18838.31055 0.00744
18838.50977 0.007568
18838.69922 0.007695
18838.90039 0.007823
18839.09961 0.007951
18839.30078 0.008079
18839.50000 0.008206
18839.69922 0.008334
18839.90039 0.008462
18840.09961 0.008545
18840.28906 0.008579
18840.49023 0.008614
18840.68945 0.008649
18840.89062 0.008684
18841.08984 0.008718
18841.28906 0.008753
18841.49023 0.008788
18841.68945 0.008823
18841.88086 0.008858
18842.08008 0.008905
18842.27930 0.00897
18842.48047 0.009036
18842.67969 0.009101
18842.88086 0.009166
18843.08008 0.009232
18843.27930 0.009297
18843.47070 0.009362
18843.66992 0.009427
18843.86914 0.009493
18844.07031 0.009572
18844.26953 0.009675
18844.47070 0.009777
18844.66992 0.00988
18844.86914 0.009984
18845.06055 0.010087
18845.25977 0.010189
18845.46094 0.010293
18845.66016 0.010396
18845.85938 0.010499
18846.06055 0.010595
18846.25977 0.010672
18846.46094 0.01075
18846.65039 0.010828
18846.84961 0.010906
18847.05078 0.010983
18847.25000 0.01106
18847.44922 0.011138
18847.65039 0.011216
18847.84961 0.011294
18848.03906 0.011388
18848.24023 0.011539
18848.43945 0.011691
18848.64062 0.011843
18848.83984 0.011994
18849.03906 0.012144
18849.24023 0.012296
18849.43945 0.012448
18849.64062 0.012599
18849.83984 0.012751
18850.02930 0.0129
18850.23047 0.013044
18850.42969 0.013189
18850.63086 0.013333
18850.83008 0.013477
18851.02930 0.01362
18851.23047 0.013765
18851.42969 0.013909
18851.61914 0.014053
18851.82031 0.014198
18852.01953 0.014333
18852.22070 0.014408
18852.41992 0.014482
18852.61914 0.014557
18852.82031 0.014631
18853.01953 0.014706
18853.21094 0.014779
18853.41016 0.014854
18853.60938 0.014928
18853.81055 0.015003
18854.00977 0.01508
18854.21094 0.015197
18854.41016 0.015312
18854.60938 0.015429
18854.81055 0.015546
18855.00977 0.015663
18855.21094 0.01578
18855.40039 0.015896
18855.59961 0.016013
18855.80078 0.01613
18856.00000 0.016247
18856.19922 0.016443
18856.40039 0.01664
18856.59961 0.016837
18856.78906 0.017031
18856.99023 0.017228
18857.18945 0.017424
18857.39062 0.017621
18857.58984 0.017818
18857.78906 0.018014
18857.99023 0.018209
18858.18945 0.018442
18858.39062 0.018678
18858.58984 0.018913
18858.78906 0.019149
18858.98047 0.019384
18859.17969 0.019617
18859.38086 0.019853
18859.58008 0.020088
18859.77930 0.020324
18859.98047 0.020559
18860.17969 0.020707
18860.38086 0.020845
18860.57031 0.020981
18860.76953 0.021118
18860.97070 0.021256
18861.16992 0.021393
18861.36914 0.021531
18861.57031 0.021668
18861.76953 0.021805
18861.97070 0.021943
18862.16992 0.022177
18862.36914 0.022433
18862.56055 0.022688
18862.75977 0.022943
18862.96094 0.023199
18863.16016 0.023454
18863.35938 0.023709
18863.56055 0.023965
18863.75977 0.024218
18863.96094 0.024473
18864.16016 0.024719
18864.35938 0.024963
18864.55078 0.025207
18864.75000 0.025451
18864.94922 0.025695
18865.15039 0.025939
18865.34961 0.026181
18865.55078 0.026425
18865.75000 0.026669
18865.94922 0.026913
18866.15039 0.027234
18866.34961 0.027583
18866.53906 0.027932
18866.74023 0.028281
18866.93945 0.028629
18867.14062 0.028975
18867.33984 0.029324
18867.53906 0.029673
18867.74023 0.030022
18867.93945 0.030371
18868.14062 0.030692
18868.33984 0.031002
18868.53906 0.031311
18868.73047 0.03162
18868.92969 0.031929
18869.13086 0.032236
18869.33008 0.032545
18869.52930 0.032854
18869.73047 0.033163
18869.92969 0.033473
18870.13086 0.033797
18870.33008 0.03413
18870.52930 0.034462
18870.72070 0.034795
18870.91992 0.035128
18871.11914 0.035461
18871.32031 0.035793
18871.51953 0.036123
18871.72070 0.036456
18871.91992 0.036788
18872.11914 0.037167
18872.32031 0.037579
18872.51953 0.03799
18872.71094 0.038401
18872.91016 0.038812
18873.10938 0.039224
18873.31055 0.039635
18873.50977 0.040046
18873.71094 0.040458
18873.91016 0.040869
18874.10938 0.041251
18874.31055 0.041617
18874.50977 0.041982
18874.71094 0.042348
18874.90039 0.042713
18875.09961 0.043079
18875.30078 0.043444
18875.50000 0.04381
18875.69922 0.044175
18875.90039 0.044541
18876.09961 0.045003
18876.30078 0.045562
18876.50000 0.046121
18876.69922 0.04668
18876.90039 0.047239
18877.09961 0.047799
18877.28906 0.048358
18877.49023 0.048917
18877.68945 0.04947
18877.89062 0.05003
18878.08984 0.050522
18878.28906 0.050934
18878.49023 0.051347
18878.68945 0.051759
18878.89062 0.052171
18879.08984 0.052583
18879.28906 0.052995
18879.48047 0.053407
18879.67969 0.053819
18879.88086 0.054231
18880.08008 0.05472
18880.27930 0.055319
18880.48047 0.055918
18880.67969 0.056516
18880.88086 0.057115
18881.08008 0.057714
18881.27930 0.058312
18881.48047 0.058911
18881.67969 0.059509
18881.88086 0.060108
18882.07031 0.060685
18882.26953 0.061225
18882.47070 0.061766
18882.66992 0.062306
18882.86914 0.062846
18883.07031 0.063386
18883.26953 0.063927
18883.47070 0.064467
18883.66992 0.065007
18883.86914 0.065548
18884.07031 0.066132
18884.26953 0.066805
18884.46094 0.067471
18884.66016 0.068144
18884.85938 0.068817
18885.06055 0.06949
18885.25977 0.070163
18885.46094 0.070836
18885.66016 0.071509
18885.85938 0.072182
18886.06055 0.07284
18886.25977 0.073462
18886.46094 0.074084
18886.65039 0.074705
18886.84961 0.075327
18887.05078 0.075949
18887.25000 0.07657
18887.44922 0.077192
18887.65039 0.077813
18887.84961 0.078435
18888.05078 0.079085
18888.25000 0.079822
18888.44922 0.080558
18888.65039 0.081302
18888.84961 0.082038
18889.05078 0.082775
18889.25000 0.083512
18889.44922 0.084248
18889.64062 0.084985
18889.83984 0.085721
18890.03906 0.086452
18890.24023 0.087161
18890.43945 0.087871
18890.64062 0.088581
18890.83984 0.08929
18891.03906 0.09
18891.24023 0.090709
18891.43945 0.091419
18891.64062 0.092128
18891.83984 0.092838
18892.03906 0.093577
18892.23047 0.094457
18892.42969 0.095336
18892.63086 0.096215
18892.83008 0.097095
18893.02930 0.097974
18893.23047 0.098854
18893.42969 0.099733
18893.63086 0.100612
18893.83008 0.101491
18894.02930 0.102418
18894.23047 0.103638
18894.42969 0.104858
18894.63086 0.106079
18894.82031 0.107299
18895.01953 0.108519
18895.22070 0.10974
18895.41992 0.110972
18895.61914 0.112192
18895.82031 0.113412
18896.01953 0.114612
18896.22070 0.115637
18896.41992 0.116662
18896.61914 0.117687
18896.82031 0.118713
18897.01953 0.119738
18897.22070 0.120763
18897.41992 0.121788
18897.61914 0.122813
18897.81055 0.123839
18898.00977 0.12487
18898.21094 0.125995
18898.41016 0.12712
18898.60938 0.128244
18898.81055 0.12938
18899.00977 0.130504
18899.21094 0.131629
18899.41016 0.132753
18899.60938 0.133878
18899.81055 0.135002
18900.00977 0.136114
18900.21094 0.136916
18900.41016 0.137718
18900.60938 0.138519
18900.80078 0.139321
18901.00000 0.140123
18901.19922 0.140925
18901.40039 0.141727
18901.59961 0.142536
18901.80078 0.143338
18902.00000 0.144141
18902.19922 0.145026
18902.40039 0.14591
18902.59961 0.146795
18902.80078 0.14768
18903.00000 0.148565
18903.19922 0.14945
18903.40039 0.150335
18903.59961 0.15122
18903.80078 0.152114
18904.00000 0.152999
18904.19922 0.153747
18904.39062 0.154492
18904.58984 0.155237
18904.78906 0.155983
18904.99023 0.156728
18905.18945 0.157473
18905.39062 0.158218
18905.58984 0.158964
18905.78906 0.159716
18905.99023 0.160461
18906.18945 0.161252
18906.39062 0.162046
18906.58984 0.162839
18906.78906 0.163633
18906.99023 0.164426
18907.18945 0.16522
18907.38086 0.166013
18907.58984 0.166814
18907.78906 0.167608
18907.98047 0.168401
18908.17969 0.169174
18908.38086 0.169946
18908.58008 0.170717
18908.77930 0.171489
18908.98047 0.172261
18909.17969 0.173032
18909.38086 0.173811
18909.58008 0.174583
18909.77930 0.175354
18909.98047 0.176126
18910.17969 0.176967
18910.38086 0.177816
18910.58008 0.178666
18910.77930 0.179515
18910.98047 0.180373
18911.17969 0.181222
18911.36914 0.182071
18911.57031 0.182921
18911.76953 0.18377
18911.97070 0.184619
18912.16992 0.185382
18912.36914 0.186138
18912.57031 0.186887
18912.76953 0.187635
18912.97070 0.188384
18913.16992 0.189133
18913.36914 0.189881
18913.57031 0.19063
18913.76953 0.191386
18913.97070 0.192135
18914.16992 0.192861
18914.36914 0.193583
18914.57031 0.194305
18914.76953 0.195028
18914.96094 0.19575
18915.16992 0.196479
18915.36914 0.197201
18915.56055 0.197924
18915.75977 0.198646
18915.96094 0.199368
18916.16016 0.200065
18916.35938 0.200763
18916.56055 0.201455
18916.75977 0.202146
18916.96094 0.202838
18917.16016 0.203529
18917.35938 0.20422
18917.56055 0.204919
18917.75977 0.20561
18917.96094 0.206301
18918.16016 0.206881
18918.35938 0.207432
18918.56055 0.207982
18918.75977 0.208538
18918.96094 0.209089
18919.16016 0.20964
18919.35938 0.21019
18919.55078 0.210741
18919.75000 0.211291
18919.96094 0.211847
18920.15039 0.212235
18920.34961 0.212576
18920.55078 0.212916
18920.75000 0.213256
18920.94922 0.2136
18921.15039 0.21394
18921.34961 0.214281
18921.55078 0.214621
18921.75000 0.214961
18921.94922 0.215305
18922.15039 0.215687
18922.34961 0.216083
18922.55078 0.216478
18922.75000 0.216874
18922.94922 0.217273
18923.15039 0.217669
18923.34961 0.218065
18923.55078 0.21846
18923.75000 0.218856
18923.94922 0.219255
18924.15039 0.219519
18924.34961 0.219736
18924.53906 0.219952
18924.74023 0.220169
18924.94922 0.220387
18925.14062 0.220604
18925.33984 0.22082
18925.53906 0.221036
18925.74023 0.221253
18925.93945 0.221471
18926.14062 0.221759
18926.33984 0.222074
18926.53906 0.222389
18926.74023 0.222705
18926.93945 0.223023
18927.14062 0.223338
18927.33984 0.223654
18927.53906 0.223969
18927.74023 0.224288
18927.93945 0.224603
18928.14062 0.224743
18928.33984 0.224806
18928.53906 0.22487
18928.74023 0.224934
18928.93945 0.224997
18929.14062 0.225061
18929.33984 0.225124
18929.53906 0.225188
18929.74023 0.225252
18929.93945 0.225315
18930.13086 0.225492
18930.33984 0.225726
18930.53906 0.225958
18930.73047 0.22619
18930.92969 0.226421
18931.13086 0.226655
18931.33008 0.226887
18931.52930 0.227119
18931.73047 0.22735
18931.92969 0.227582
18932.13086 0.227749
18932.33008 0.227882
18932.52930 0.228014
18932.73047 0.228146
18932.92969 0.228279
18933.13086 0.228411
18933.33008 0.228543
18933.52930 0.228675
18933.73047 0.228808
18933.92969 0.22894
18934.13086 0.228997
18934.33008 0.229014
18934.52930 0.22903
18934.73047 0.229046
18934.92969 0.229062
18935.13086 0.229078
18935.33008 0.229095
18935.52930 0.229111
18935.73047 0.229127
18935.92969 0.229143
18936.13086 0.229161
18936.33008 0.229181
18936.52930 0.2292
18936.73047 0.22922
18936.92969 0.229239
18937.13086 0.229258
18937.33008 0.229278
18937.52930 0.229297
18937.72070 0.229317
18937.91992 0.229336
18938.13086 0.229391
18938.32031 0.229466
18938.51953 0.229542
18938.72070 0.229618
18938.91992 0.229694
18939.11914 0.229769
18939.32031 0.229845
18939.51953 0.229921
18939.72070 0.229996
18939.91992 0.230072
18940.11914 0.230127
18940.32031 0.230169
18940.51953 0.23021
18940.72070 0.230251
18940.91992 0.230293
18941.11914 0.230334
18941.32031 0.230376
18941.51953 0.230418
18941.72070 0.230459
18941.91992 0.2305
18942.11914 0.230492
18942.32031 0.23045
18942.51953 0.230408
18942.72070 0.230366
18942.91992 0.230324
18943.11914 0.230282
18943.32031 0.23024
18943.51953 0.230198
18943.72070 0.230157
18943.91992 0.230115
18944.11914 0.23007
18944.32031 0.230023
18944.51953 0.229977
18944.72070 0.229931
18944.91992 0.229884
18945.11914 0.229837
18945.32031 0.229791
18945.51953 0.229744
18945.72070 0.229698
18945.91992 0.229651
18946.11914 0.229603
18946.32031 0.229553
18946.51953 0.229504
18946.72070 0.229454
18946.91992 0.229405
18947.11914 0.229356
18947.32031 0.229306
18947.51953 0.229257
18947.71094 0.229208
18947.91992 0.229158
18948.11914 0.229156
18948.31055 0.229188
18948.51953 0.22922
18948.71094 0.229253
18948.91016 0.229285
18949.11914 0.229318
18949.31055 0.22935
18949.50977 0.229382
18949.71094 0.229415
18949.91016 0.229447
18950.10938 0.229478
18950.31055 0.229509
18950.50977 0.22954
18950.71094 0.22957
18950.91016 0.229601
18951.10938 0.229631
18951.31055 0.229661
18951.50977 0.229692
18951.71094 0.229722
18951.91016 0.229753
18952.10938 0.229735
18952.31055 0.229681
18952.50977 0.229626
18952.71094 0.229572
18952.91016 0.229518
18953.10938 0.229463
18953.31055 0.229409
18953.50977 0.229355
18953.71094 0.2293
18953.91016 0.229246
18954.10938 0.22921
18954.31055 0.229189
18954.50977 0.229168
18954.71094 0.229147
18954.91016 0.229127
18955.10938 0.229106
18955.31055 0.229085
18955.50977 0.229064
18955.71094 0.229043
18955.91016 0.229022
18956.10938 0.229012
18956.31055 0.22901
18956.50977 0.229007
18956.71094 0.229005
18956.91016 0.229003
18957.10938 0.229001
18957.31055 0.228999
18957.50977 0.228996
18957.71094 0.228994
18957.91016 0.228992
18958.10938 0.229005
18958.31055 0.22903
18958.50977 0.229055
18958.71094 0.22908
18958.91016 0.229105
18959.10938 0.22913
18959.31055 0.229155
18959.50977 0.229181
18959.71094 0.229205
18959.91016 0.22923
18960.10938 0.229245
18960.31055 0.229252
18960.50977 0.229258
18960.71094 0.229265
18960.91016 0.229271
18961.10938 0.229278
18961.31055 0.229284
18961.50977 0.229291
18961.71094 0.229297
18961.91016 0.229304
18962.10938 0.229294
18962.31055 0.229272
18962.50977 0.22925
18962.71094 0.229228
18962.91016 0.229206
18963.10938 0.229184
18963.31055 0.229162
18963.50977 0.22914
18963.71094 0.229118
18963.91016 0.229096
18964.10938 0.229085
18964.31055 0.229084
18964.50977 0.229082
18964.71094 0.22908
18964.91016 0.229078
18965.10938 0.229076
18965.31055 0.229075
18965.50977 0.229073
18965.71094 0.229071
18965.91016 0.229069
18966.10938 0.229065
18966.31055 0.229058
18966.50977 0.229051
18966.71094 0.229045
18966.91016 0.229038
18967.10938 0.229031
18967.31055 0.229025
18967.50977 0.229018
18967.71094 0.229011
18967.91016 0.229005
18968.10938 0.228973
18968.31055 0.228923
18968.50977 0.228873
18968.71094 0.228823
18968.91016 0.228773
18969.10938 0.228722
18969.31055 0.228672
18969.50977 0.228622
18969.71094 0.228572
18969.91016 0.228521
18970.10938 0.228553
18970.31055 0.228649
18970.50977 0.228743
18970.71094 0.228838
18970.91016 0.228933
18971.10938 0.229027
18971.31055 0.229123
18971.50977 0.229217
18971.71094 0.229313
18971.91016 0.229407
18972.11914 0.229481
18972.31055 0.229539
18972.51953 0.229598
18972.71094 0.229656
18972.91992 0.229714
18973.11914 0.229772
18973.32031 0.229831
18973.51953 0.229889
18973.71094 0.229947
18973.91992 0.230006
18974.11914 0.229986
18974.32031 0.22991
18974.51953 0.229834
18974.72070 0.229757
18974.91992 0.229681
18975.11914 0.229604
18975.32031 0.229528
18975.51953 0.229452
18975.72070 0.229376
18975.91992 0.229299
18976.11914 0.229295
18976.32031 0.22934
18976.51953 0.229386
18976.72070 0.229432
18976.91992 0.229477
18977.11914 0.229523
18977.32031 0.229568
18977.51953 0.229614
18977.72070 0.229659
18977.91992 0.229705
18978.11914 0.229691
18978.32031 0.229638
18978.51953 0.229584
18978.72070 0.229531
18978.91992 0.229478
18979.11914 0.229424
18979.32031 0.229371
18979.51953 0.229317
18979.72070 0.229264
18979.91992 0.22921
18980.11914 0.229203
18980.32031 0.229224
18980.51953 0.229246
18980.72070 0.229268
18980.91992 0.22929
18981.11914 0.229312
18981.32031 0.229333
18981.51953 0.229355
18981.72070 0.229377
18981.91992 0.229399
18982.11914 0.22937
18982.32031 0.229309
18982.51953 0.229248
18982.72070 0.229187
18982.91992 0.229127
18983.13086 0.229066
18983.32031 0.229006
18983.52930 0.228945
18983.72070 0.228884
18983.92969 0.228823
18984.11914 0.228779
18984.33008 0.228744
18984.52930 0.228709
18984.73047 0.228674
18984.92969 0.228639
18985.13086 0.228605
18985.33008 0.22857
18985.52930 0.228535
18985.73047 0.2285
18985.92969 0.228465
18986.13086 0.228463
18986.33008 0.228479
18986.52930 0.228495
18986.73047 0.228511
18986.92969 0.228528
18987.13086 0.228544
18987.33008 0.22856
18987.52930 0.228576
18987.73047 0.228592
18987.92969 0.228608
18988.13086 0.228656
18988.33008 0.22872
18988.52930 0.228784
18988.73047 0.228849
18988.92969 0.228913
18989.13086 0.228977
18989.33008 0.229042
18989.52930 0.229106
18989.73047 0.22917
18989.92969 0.229234
18990.13086 0.229225
18990.33008 0.229179
18990.53906 0.229133
18990.73047 0.229087
18990.93945 0.229041
18991.14062 0.228995
18991.33984 0.228949
18991.53906 0.228903
18991.74023 0.228857
18991.93945 0.228811
18992.14062 0.228811
18992.33984 0.228832
18992.53906 0.228853
18992.74023 0.228873
18992.93945 0.228894
18993.14062 0.228915
18993.33984 0.228936
18993.53906 0.228957
18993.74023 0.228978
18993.93945 0.228998
18994.14062 0.228947
18994.33984 0.228866
18994.53906 0.228785
18994.74023 0.228703
18994.93945 0.228622
18995.14062 0.228541
18995.33984 0.228459
18995.53906 0.228378
18995.74023 0.228296
18995.93945 0.228215
18996.14062 0.228219
18996.34961 0.228255
18996.53906 0.228292
18996.75000 0.228328
18996.94922 0.228364
18997.15039 0.228401
18997.34961 0.228437
18997.55078 0.228474
18997.75000 0.22851
18997.94922 0.228546
18998.15039 0.228502
18998.34961 0.22843
18998.55078 0.228358
18998.75000 0.228285
18998.94922 0.228214
18999.15039 0.228141
18999.34961 0.228068
18999.55078 0.227996
18999.75000 0.227924
18999.94922 0.227852
19000.15039 0.227806
19000.34961 0.227769
19000.55078 0.227733
19000.75000 0.227695
19000.96094 0.227659
19001.15039 0.227622
19001.35938 0.227585
19001.55078 0.227548
19001.75977 0.227511
19001.96094 0.227474
19002.16016 0.227398
19002.35938 0.22731
19002.56055 0.227222
19002.75977 0.227135
19002.96094 0.227047
19003.16016 0.22696
19003.35938 0.226872
19003.56055 0.226784
19003.75977 0.226697
19003.96094 0.22661
19004.16016 0.226618
19004.35938 0.226649
19004.56055 0.22668
19004.75977 0.226711
19004.96094 0.226742
19005.16016 0.226773
19005.35938 0.226803
19005.56055 0.226835
19005.76953 0.226866
19005.96094 0.226897
19006.16992 0.226926
19006.36914 0.226955
19006.57031 0.226983
19006.76953 0.227012
19006.97070 0.227041
19007.16992 0.227069
19007.36914 0.227098
19007.57031 0.227127
19007.76953 0.227155
19007.97070 0.227184
19008.16992 0.227119
19008.36914 0.227039
19008.57031 0.226958
19008.76953 0.226877
19008.97070 0.226796
19009.16992 0.226715
19009.38086 0.226634
19009.57031 0.226554
19009.77930 0.226473
19009.98047 0.226392
19010.17969 0.226282
19010.38086 0.226168
19010.58008 0.226053
19010.77930 0.22594
19010.98047 0.225826
19011.17969 0.225711
19011.38086 0.225598
19011.58008 0.225483
19011.77930 0.225369
19011.98047 0.225255
19012.17969 0.225316
19012.38086 0.225396
19012.58008 0.225475
19012.77930 0.225555
19012.98047 0.225635
19013.17969 0.225714
19013.38086 0.225794
19013.58984 0.225874
19013.78906 0.225953
19013.99023 0.226033
19014.18945 0.225856
19014.39062 0.225663
19014.58984 0.225468
19014.78906 0.225273
19014.99023 0.225078
19015.18945 0.224885
19015.39062 0.22469
19015.58984 0.224495
19015.78906 0.224301
19015.99023 0.224106
19016.18945 0.224078
19016.39062 0.224056
19016.58984 0.224034
19016.78906 0.224012
19017.00000 0.22399
19017.19922 0.223968
19017.40039 0.223946
19017.59961 0.223924
19017.80078 0.223902
19018.00000 0.22388
19018.19922 0.223911
19018.40039 0.223942
19018.59961 0.223974
19018.80078 0.224005
19019.00000 0.224036
19019.19922 0.224067
19019.40039 0.224099
19019.59961 0.22413
19019.80078 0.224161
19020.00000 0.224191
19020.21094 0.224165
19020.41016 0.224139
19020.60938 0.224114
19020.81055 0.224088
19021.00977 0.224062
19021.21094 0.224036
19021.41016 0.22401
19021.60938 0.223984
19021.81055 0.223959
19022.00977 0.223927
19022.21094 0.223792
19022.41016 0.223656
19022.60938 0.223521
19022.81055 0.223387
19023.00977 0.223251
19023.21094 0.223115
19023.41992 0.22298
19023.61914 0.222846
19023.82031 0.22271
19024.01953 0.222582
19024.22070 0.222529
19024.41992 0.222476
19024.61914 0.222423
19024.82031 0.22237
19025.01953 0.222318
19025.22070 0.222265
19025.41992 0.222212
19025.61914 0.222159
19025.82031 0.222106
19026.01953 0.222063
19026.22070 0.222088
19026.42969 0.222114
19026.63086 0.22214
19026.83008 0.222165
19027.02930 0.222191
19027.23047 0.222217
19027.42969 0.222243
19027.63086 0.222268
19027.83008 0.222294
19028.02930 0.222302
19028.23047 0.222214
19028.42969 0.222128
19028.63086 0.22204
19028.83008 0.221952
19029.03906 0.221864
19029.24023 0.221776
19029.43945 0.22169
19029.64062 0.221602
19029.83984 0.221514
19030.03906 0.221421
19030.24023 0.221305
19030.43945 0.221189
19030.64062 0.221072
19030.83984 0.220955
19031.03906 0.220839
19031.24023 0.220723
19031.43945 0.220607
19031.64062 0.22049
19031.84961 0.220373
19032.03906 0.220276
19032.25000 0.220239
19032.44922 0.220202
19032.65039 0.220165
19032.84961 0.220128
19033.05078 0.220091
19033.25000 0.220055
19033.44922 0.220018
19033.65039 0.219981
19033.84961 0.219944
19034.05078 0.219891
19034.25000 0.219793
19034.46094 0.219695
19034.66016 0.219597
19034.85938 0.219499
19035.06055 0.219402
19035.25977 0.219304
19035.46094 0.219206
19035.66016 0.219108
19035.85938 0.21901
19036.06055 0.218885
19036.25977 0.218692
19036.46094 0.2185
19036.66016 0.218307
19036.86914 0.218115
19037.06055 0.217925
19037.26953 0.217732
19037.47070 0.21754
19037.66992 0.217347
19037.86914 0.217155
19038.07031 0.216984
19038.26953 0.216854
19038.47070 0.216723
19038.66992 0.216592
19038.86914 0.216461
19039.07031 0.21633
19039.26953 0.2162
19039.47070 0.216069
19039.67969 0.215938
19039.88086 0.215807
19040.08008 0.215643
19040.27930 0.215428
19040.48047 0.215216
19040.67969 0.215001
19040.88086 0.214787
19041.08008 0.214572
19041.27930 0.214358
19041.48047 0.214143
19041.67969 0.21393
19041.88086 0.213716
19042.08984 0.21351
19042.28906 0.213316
19042.49023 0.213123
19042.68945 0.212929
19042.89062 0.212735
19043.08984 0.212543
19043.28906 0.21235
19043.49023 0.212156
19043.68945 0.211962
19043.89062 0.211769
19044.09961 0.211498
19044.28906 0.211147
19044.50000 0.210793
19044.69922 0.210438
19044.90039 0.210084
19045.09961 0.209729
19045.30078 0.209374
19045.50000 0.20902
19045.69922 0.208669
19045.90039 0.208314
19046.09961 0.207923
19046.30078 0.207497
19046.50977 0.20707
19046.71094 0.206644
19046.91016 0.206218
19047.10938 0.205792
19047.31055 0.20537
19047.50977 0.204944
19047.71094 0.204518
19047.91016 0.204092
19048.10938 0.203597
19048.31055 0.20305
19048.51953 0.202503
19048.71094 0.201961
19048.91992 0.201413
19049.11914 0.200866
19049.32031 0.200319
19049.51953 0.199771
19049.72070 0.199224
19049.91992 0.198676
19050.11914 0.198223
19050.32031 0.19783
19050.51953 0.19744
19050.72070 0.197047
19050.92969 0.196653
19051.13086 0.19626
19051.33008 0.195866
19051.52930 0.195473
19051.73047 0.195079
19051.92969 0.194686
19052.13086 0.194276
19052.33008 0.193862
19052.52930 0.193443
19052.73047 0.193025
19052.93945 0.192607
19053.14062 0.192189
19053.33984 0.19177
19053.53906 0.191352
19053.74023 0.190934
19053.93945 0.190515
19054.14062 0.19017
19054.33984 0.189859
19054.53906 0.189544
19054.74023 0.189229
19054.94922 0.188914
19055.15039 0.1886
19055.34961 0.188285
19055.55078 0.18797
19055.75000 0.187655
19055.94922 0.18734
19056.15039 0.186843
19056.34961 0.186288
19056.55078 0.185733
19056.75000 0.185184
19056.96094 0.184629
19057.16016 0.184074
19057.35938 0.183518
19057.56055 0.182963
19057.75977 0.182408
19057.96094 0.181853
19058.16016 0.181131
19058.35938 0.180369
19058.56055 0.179607
19058.76953 0.178845
19058.97070 0.178083
19059.16992 0.177321
19059.36914 0.176566
19059.57031 0.175804
19059.76953 0.175042
19059.97070 0.17428
19060.16992 0.173507
19060.36914 0.172733
19060.57031 0.171958
19060.77930 0.171184
19060.98047 0.17041
19061.17969 0.169635
19061.38086 0.168861
19061.58008 0.168087
19061.77930 0.167312
19061.98047 0.166538
19062.17969 0.165464
19062.38086 0.164362
19062.58984 0.16326
19062.78906 0.162158
19062.99023 0.161067
19063.18945 0.159965
19063.39062 0.158862
19063.58984 0.15776
19063.78906 0.156658
19063.99023 0.155556
19064.18945 0.154809
19064.39062 0.154076
19064.59961 0.153344
19064.80078 0.152612
19065.00000 0.151879
19065.19922 0.151147
19065.40039 0.150414
19065.59961 0.149682
19065.80078 0.148949
19066.00000 0.148216
19066.21094 0.147456
19066.41016 0.146697
19066.60938 0.145937
19066.81055 0.145177
19067.00977 0.144417
19067.21094 0.143657
19067.41016 0.142897
19067.60938 0.142137
19067.81055 0.141377
19068.01953 0.140627
19068.22070 0.139991
19068.41992 0.139355
19068.61914 0.138719
19068.82031 0.138083
19069.01953 0.137447
19069.22070 0.136811
19069.41992 0.136175
19069.63086 0.135539
19069.83008 0.134902
19070.02930 0.134241
19070.23047 0.133426
19070.42969 0.132603
19070.63086 0.131779
19070.83008 0.130956
19071.02930 0.130133
19071.23047 0.12931
19071.42969 0.128487
19071.63086 0.127664
19071.83984 0.12684
19072.03906 0.12605
19072.24023 0.125402
19072.43945 0.124754
19072.64062 0.124106
19072.83984 0.123458
19073.03906 0.122803
19073.25000 0.122156
19073.44922 0.121508
19073.65039 0.120859
19073.84961 0.120211
19074.05078 0.119528
19074.25000 0.118742
19074.44922 0.117955
19074.65039 0.117168
19074.85938 0.116381
19075.06055 0.115594
19075.25977 0.114808
19075.46094 0.114021
19075.66016 0.113234
19075.85938 0.112447
19076.06055 0.11166
19076.25977 0.110874
19076.46094 0.110088
19076.66992 0.109302
19076.86914 0.108515
19077.07031 0.107729
19077.26953 0.106943
19077.47070 0.106156
19077.66992 0.10537
19077.86914 0.104584
19078.07031 0.103814
19078.27930 0.103072
19078.48047 0.10233
19078.67969 0.101589
19078.88086 0.100847
19079.08008 0.100105
19079.27930 0.099363
19079.48047 0.098621
19079.67969 0.09788
19079.88086 0.097138
19080.08984 0.096371
19080.28906 0.09557
19080.49023 0.094761
19080.68945 0.093961
19080.89062 0.09316
19081.08984 0.092359
19081.28906 0.091558
19081.50000 0.090757
19081.69922 0.089956
19081.90039 0.089155
19082.09961 0.08839
19082.30078 0.08766
19082.50000 0.08693
19082.69922 0.0862
19082.90039 0.08547
19083.10938 0.08474
19083.31055 0.08401
19083.50977 0.08328
19083.71094 0.08255
19083.91016 0.081813
19084.10938 0.081086
19084.31055 0.08036
19084.51953 0.079635
19084.72070 0.078909
19084.91992 0.078183
19085.11914 0.077457
19085.32031 0.076732
19085.51953 0.076006
19085.72070 0.07528
19085.91992 0.074554
19086.11914 0.073875
19086.33008 0.073224
19086.52930 0.072574
19086.73047 0.071916
19086.92969 0.071266
19087.13086 0.070615
19087.33008 0.069964
19087.53906 0.069313
19087.74023 0.068662
19087.93945 0.068011
19088.14062 0.067381
19088.33984 0.06676
19088.53906 0.06614
19088.74023 0.065519
19088.94922 0.064892
19089.15039 0.064271
19089.34961 0.063651
19089.55078 0.06303
19089.75000 0.062409
19089.94922 0.061788
19090.15039 0.061295
19090.34961 0.060842
19090.55078 0.060389
19090.75977 0.059936
19090.96094 0.059479
19091.16016 0.059026
19091.35938 0.058573
19091.56055 0.05812
19091.75977 0.057667
19091.96094 0.057214
19092.16992 0.056671
19092.36914 0.056108
19092.57031 0.055546
19092.76953 0.054978
19092.97070 0.054416
19093.16992 0.053853
19093.38086 0.053291
19093.58008 0.052729
19093.77930 0.052166
19093.98047 0.051604
19094.17969 0.051186
19094.38086 0.050786
19094.58008 0.050381
19094.78906 0.049981
19094.99023 0.049581
19095.18945 0.04918
19095.39062 0.04878
19095.58984 0.048379
19095.78906 0.047979
19095.99023 0.047578
19096.19922 0.047105
19096.40039 0.046634
19096.59961 0.046163
19096.80078 0.045692
19097.00000 0.04522
19097.19922 0.044749
19097.40039 0.044278
19097.60938 0.043802
19097.81055 0.043331
19098.00977 0.042866
19098.21094 0.042562
19098.41016 0.042257
19098.60938 0.041953
19098.81055 0.041648
19099.01953 0.041341
19099.22070 0.041037
19099.41992 0.040732
19099.61914 0.040428
19099.82031 0.040123
19100.01953 0.039806
19100.22070 0.039377
19100.42969 0.038943
19100.63086 0.038514
19100.83008 0.038085
19101.02930 0.037656
19101.23047 0.037227
19101.42969 0.036797
19101.63086 0.036364
19101.83984 0.035935
19102.03906 0.035524
19102.24023 0.035194
19102.43945 0.034864
19102.64062 0.034534
19102.83984 0.0342
19103.03906 0.03387
19103.25000 0.03354
19103.44922 0.03321
19103.65039 0.03288
19103.84961 0.032549
19104.05078 0.032231
19104.25000 0.031957
19104.46094 0.031683
19104.66016 0.031408
19104.85938 0.031134
19105.06055 0.030857
19105.25977 0.030583
19105.46094 0.030309
19105.66016 0.030035
19105.86914 0.029761
19106.07031 0.029498
19106.26953 0.029256
19106.47070 0.029016
19106.66992 0.028776
19106.86914 0.028536
19107.07031 0.028296
19107.27930 0.028054
19107.48047 0.027814
19107.67969 0.027574
19107.88086 0.027335
19108.08008 0.027106
19108.28906 0.026893
19108.49023 0.026682
19108.68945 0.026471
19108.89062 0.026259
19109.08984 0.026048
19109.28906 0.025835
19109.49023 0.025624
19109.69922 0.025412
19109.90039 0.025201
19110.09961 0.02493
19110.30078 0.024592
19110.50000 0.024258
19110.69922 0.023923
19110.90039 0.023589
19111.10938 0.023254
19111.31055 0.022916
19111.50977 0.022582
19111.71094 0.022247
19111.91016 0.021913
19112.11914 0.02168
19112.32031 0.02153
19112.51953 0.02138
19112.72070 0.02123
19112.91992 0.02108
19113.11914 0.020928
19113.32031 0.020778
19113.52930 0.020628
19113.73047 0.020477
19113.92969 0.020326
19114.13086 0.020135
19114.33008 0.019923
19114.52930 0.019711
19114.73047 0.019499
19114.93945 0.019285
19115.14062 0.019073
19115.33984 0.018861
19115.53906 0.018649
19115.74023 0.018435
19115.94922 0.018223
19116.15039 0.018156
19116.34961 0.018141
19116.55078 0.018127
19116.75000 0.018113
19116.94922 0.018099
19117.15039 0.018085
19117.35938 0.018071
19117.56055 0.018057
19117.75977 0.018042
19117.96094 0.018028
19118.16016 0.01787
19118.36914 0.01768
19118.57031 0.01749
19118.76953 0.0173
19118.97070 0.017107
19119.16992 0.016917
19119.36914 0.016727
19119.57031 0.016537
19119.77930 0.016344
19119.98047 0.016154
19120.17969 0.016027
19120.38086 0.015908
19120.58008 0.015788
19120.78906 0.015668
19120.99023 0.015549
19121.18945 0.01543
19121.39062 0.01531
19121.58984 0.01519
19121.78906 0.015071
19122.00000 0.014951
19122.19922 0.014743
19122.40039 0.014533
19122.59961 0.014324
19122.80078 0.014112
19123.00000 0.013902
19123.21094 0.013692
19123.41016 0.013483
19123.60938 0.013271
19123.81055 0.013061
19124.00977 0.012855
19124.21094 0.012698
19124.41992 0.012543
19124.61914 0.012387
19124.82031 0.012232
19125.01953 0.012075
19125.22070 0.01192
19125.41992 0.011764
19125.63086 0.011608
19125.83008 0.011452
19126.02930 0.011317
19126.23047 0.0113
19126.42969 0.011283
19126.63086 0.011266
19126.83984 0.011249
19127.03906 0.011232
19127.24023 0.011215
19127.43945 0.011198
19127.64062 0.011181
19127.84961 0.011164
19128.05078 0.011098
19128.25000 0.010865
19128.44922 0.010635
19128.65039 0.010405
19128.84961 0.010175
19129.06055 0.009942
19129.25977 0.009712
19129.46094 0.009482
19129.66016 0.009249
19129.85938 0.009019
19130.06055 0.008867
19130.26953 0.008881
19130.47070 0.008894
19130.66992 0.008908
19130.86914 0.008922
19131.07031 0.008936
19131.27930 0.008949
19131.48047 0.008963
19131.67969 0.008977
19131.88086 0.00899
19132.08008 0.00899
19132.28906 0.008969
19132.49023 0.008948
19132.68945 0.008927
19132.89062 0.008906
19133.08984 0.008885
19133.28906 0.008864
19133.50000 0.008843
19133.69922 0.008822
19133.90039 0.008801
19134.09961 0.008752
19134.30078 0.008677
19134.50977 0.0086
19134.71094 0.008524
19134.91016 0.008448
19135.10938 0.008372
19135.31055 0.008296
19135.50977 0.00822
19135.72070 0.008143
19135.91992 0.008067
19136.11914 0.007936
19136.32031 0.007764
19136.51953 0.007593
19136.72070 0.007423
19136.92969 0.007251
19137.13086 0.00708
19137.33008 0.00691
19137.52930 0.006738
19137.73047 0.006567
19137.93945 0.006397
19138.14062 0.006355
19138.33984 0.006374
19138.53906 0.006392
19138.74023 0.006411
19138.94922 0.00643
19139.15039 0.006448
19139.34961 0.006467
19139.55078 0.006485
19139.75000 0.006504
19139.96094 0.006523
19140.16016 0.006534
19140.35938 0.006544
19140.56055 0.006553
19140.75977 0.006562
19140.96094 0.006572
19141.16992 0.006581
19141.36914 0.00659
19141.57031 0.0066
19141.76953 0.006609
19141.97070 0.006618
19142.17969 0.006531
19142.38086 0.006428
19142.58008 0.006326
19142.77930 0.006225
19142.98047 0.006122
19143.18945 0.006021
19143.39062 0.005918
19143.58984 0.005816
19143.78906 0.005715
19143.99023 0.005612
19144.19922 0.005543
19144.40039 0.005475
19144.59961 0.005406
19144.80078 0.005339
19145.00000 0.00527
19145.21094 0.005202
19145.41016 0.005134
19145.60938 0.005065
19145.81055 0.004997
19146.00977 0.004937
19146.21094 0.004995
19146.41992 0.005052
19146.61914 0.00511
19146.82031 0.005167
19147.01953 0.005225
19147.22070 0.005282
19147.42969 0.005339
19147.63086 0.005397
19147.83008 0.005454
19148.02930 0.005481
19148.23047 0.00535
19148.43945 0.005217
19148.64062 0.005086
19148.83984 0.004955
19149.03906 0.004823
19149.24023 0.004692
19149.44922 0.00456
19149.65039 0.004429
19149.84961 0.004297
19150.05078 0.004218
19150.25000 0.004288
19150.46094 0.004359
19150.66016 0.004429
19150.85938 0.004499
19151.06055 0.004569
19151.25977 0.004639
19151.47070 0.004709
19151.66992 0.004779
19151.86914 0.00485
19152.07031 0.004853
19152.27930 0.004735
19152.48047 0.004618
19152.67969 0.0045
19152.88086 0.004384
19153.08008 0.004267
19153.28906 0.004149
19153.49023 0.004033
19153.68945 0.003915
19153.89062 0.003798
19154.08984 0.003711
19154.28906 0.003661
19154.50000 0.00361
19154.69922 0.00356
19154.90039 0.003509
19155.09961 0.003458
19155.30078 0.003408
19155.50977 0.003357
19155.71094 0.003307
19155.91016 0.003256
19156.10938 0.003222
19156.32031 0.003201
19156.51953 0.003181
19156.72070 0.00316
19156.91992 0.003139
19157.11914 0.003118
19157.33008 0.003097
19157.52930 0.003076
19157.73047 0.003055
19157.92969 0.003035
19158.13086 0.003016
19158.33984 0.003
19158.53906 0.002983
19158.74023 0.002966
19158.93945 0.002949
19159.14062 0.002932
19159.34961 0.002915
19159.55078 0.002898
19159.75000 0.002881
19159.94922 0.002864
19160.15039 0.002843
19160.35938 0.00282
19160.56055 0.002798
19160.75977 0.002775
19160.96094 0.002753
19161.16992 0.00273
19161.36914 0.002708
19161.57031 0.002685
19161.76953 0.002663
19161.97070 0.00264
19162.17969 0.002647
19162.38086 0.002658
19162.58008 0.00267
19162.77930 0.002681
19162.98047 0.002692
19163.18945 0.002704
19163.39062 0.002715
19163.58984 0.002726
19163.78906 0.002737
19164.00000 0.002749
19164.19922 0.002759
19164.40039 0.002769
19164.59961 0.002779
19164.80078 0.002789
19165.00977 0.002799
19165.21094 0.002809
19165.41016 0.002819
19165.60938 0.00283
19165.81055 0.00284
19166.01953 0.002841
19166.22070 0.002753
19166.41992 0.002664
19166.61914 0.002575
19166.83008 0.002486
19167.02930 0.002397
19167.23047 0.002308
19167.42969 0.00222
19167.63086 0.002131
19167.83984 0.002042
19168.03906 0.00199
19168.24023 0.002093
19168.43945 0.002197
19168.65039 0.002301
19168.84961 0.002403
19169.05078 0.002507
19169.25000 0.00261
19169.46094 0.002714
19169.66016 0.002817
19169.85938 0.002921
19170.06055 0.002992
19170.25977 0.002992
19170.46094 0.002991
19170.66992 0.00299
19170.86914 0.002989
19171.07031 0.002988
19171.26953 0.002987
19171.48047 0.002987
19171.67969 0.002986
19171.88086 0.002985
19172.08008 0.002923
19172.28906 0.002776
19172.49023 0.002628
19172.68945 0.002481
19172.89062 0.002333
19173.08984 0.002186
19173.30078 0.002037
19173.50000 0.001891
19173.69922 0.001742
19173.90039 0.001594
19174.10938 0.001588
19174.31055 0.00171
19174.50977 0.001832
19174.71094 0.001954
19174.91016 0.002076
19175.11914 0.002198
19175.32031 0.00232
19175.51953 0.002442
19175.72070 0.002565
19175.92969 0.002686
19176.13086 0.002656
19176.33008 0.002539
19176.52930 0.00242
19176.73047 0.002303
19176.93945 0.002184
19177.14062 0.002066
19177.33984 0.001948
19177.53906 0.00183
19177.75000 0.001712
19177.94922 0.001594
19178.15039 0.001488
19178.34961 0.001385
19178.56055 0.001282
19178.75977 0.00118
19178.96094 0.001076
19179.16016 0.000974
19179.36914 0.000871
19179.57031 0.000769
19179.76953 0.000666
19179.97070 0.000563
19180.16992 0.000624
19180.38086 0.000711
19180.58008 0.000798
19180.77930 0.000885
19180.98047 0.000973
19181.18945 0.001059
19181.39062 0.001147
19181.58984 0.001233
19181.78906 0.001321
19182.00000 0.001408
19182.19922 0.001429
19182.40039 0.001449
19182.59961 0.001469
19182.80078 0.001489
19183.00977 0.001509
19183.21094 0.001529
19183.41016 0.001549
19183.60938 0.001569
19183.82031 0.001589
19184.01953 0.001608
19184.22070 0.00161
19184.41992 0.001612
19184.61914 0.001614
19184.83008 0.001616
19185.02930 0.001619
19185.23047 0.001621
19185.43945 0.001623
19185.64062 0.001625
19185.83984 0.001627
19186.03906 0.001621
19186.24023 0.001583
19186.44922 0.001545
19186.65039 0.001506
19186.84961 0.001468
19187.05078 0.00143
19187.25977 0.001392
19187.46094 0.001354
19187.66016 0.001315
19187.85938 0.001277
19188.07031 0.00126
19188.26953 0.001286
19188.47070 0.001311
19188.66992 0.001337
19188.88086 0.001363
19189.08008 0.001388
19189.27930 0.001414
19189.48047 0.00144
19189.68945 0.001466
19189.89062 0.001491
19190.08984 0.001456
19190.28906 0.001346
19190.50000 0.001235
19190.69922 0.001125
19190.90039 0.001014
19191.09961 0.000905
19191.30078 0.000794
19191.50977 0.000683
19191.71094 0.000573
19191.91016 0.000463
19192.11914 0.000401
21111.33203 0.0
