# %ECSV 0.9
# ---
# datatype:
# - {name: wavelength, unit: Angstrom, datatype: float32}
# - {name: response, datatype: float32}
# meta: !!omap
# - {band_name: F204M}
# - {group_name: NICMOS2}
wavelength response
19330.07031 0.0
19330.34961 6e-06
19330.64062 0.000161
19330.91992 0.000316
19331.19922 0.000471
19331.49023 0.000627
19331.76953 0.000782
19332.05078 0.000911
19332.33984 0.000931
19332.61914 0.000952
19332.91016 0.000972
19333.18945 0.000992
19333.47070 0.001012
19333.75977 0.001032
19334.03906 0.001053
19334.32031 0.001079
19334.60938 0.001104
19334.89062 0.00113
19335.17969 0.001156
19335.46094 0.001181
19335.74023 0.001207
19336.02930 0.001231
19336.31055 0.001243
19336.58984 0.001254
19336.88086 0.001266
19337.16016 0.001278
19337.44922 0.00129
19337.73047 0.001301
19338.00977 0.001308
19338.30078 0.001185
19338.58008 0.001063
19338.85938 0.000942
19339.15039 0.00082
19339.42969 0.000697
19339.71094 0.000576
19340.00000 0.000454
19340.27930 0.000556
19340.57031 0.00066
19340.84961 0.000763
19341.13086 0.000866
19341.41992 0.000971
19341.69922 0.001074
19341.98047 0.001177
19342.26953 0.001087
19342.55078 0.000986
19342.83984 0.000886
19343.11914 0.000784
19343.40039 0.000684
19343.68945 0.000583
19343.97070 0.000482
19344.25977 0.000525
19344.53906 0.000583
19344.82031 0.000642
19345.10938 0.000701
19345.39062 0.00076
19345.66992 0.000818
19345.96094 0.000877
19346.24023 0.000919
19346.52930 0.000959
19346.81055 0.000999
19347.08984 0.001039
19347.38086 0.001078
19347.66016 0.001118
19347.94922 0.001158
19348.23047 0.001147
19348.50977 0.001124
19348.80078 0.001102
19349.08008 0.001079
19349.36914 0.001056
19349.65039 0.001033
19349.92969 0.001011
19350.22070 0.00103
19350.50000 0.001061
19350.78906 0.001093
19351.07031 0.001125
19351.34961 0.001157
19351.64062 0.001189
19351.91992 0.001221
19352.21094 0.001179
19352.49023 0.001109
19352.76953 0.001039
19353.06055 0.000968
19353.33984 0.000898
19353.61914 0.000827
19353.91016 0.000757
19354.18945 0.000741
19354.48047 0.000752
19354.75977 0.000763
19355.03906 0.000774
19355.33008 0.000786
19355.60938 0.000797
19355.90039 0.000808
19356.17969 0.000868
19356.46094 0.000956
19356.75000 0.001045
19357.02930 0.001133
19357.32031 0.001222
19357.59961 0.00131
19357.88086 0.001398
19358.16992 0.00137
19358.44922 0.001263
19358.74023 0.001154
19359.01953 0.001046
19359.30078 0.000938
19359.58984 0.00083
19359.86914 0.000722
19360.16016 0.000688
19360.43945 0.000714
19360.72070 0.00074
19361.00977 0.000766
19361.28906 0.000792
19361.58008 0.000818
19361.85938 0.000844
19362.14062 0.000874
19362.42969 0.000908
19362.71094 0.000941
19363.00000 0.000975
19363.27930 0.001008
19363.56055 0.001042
19363.84961 0.001075
19364.13086 0.001085
19364.41992 0.001069
19364.69922 0.001053
19364.99023 0.001036
19365.26953 0.00102
19365.55078 0.001003
19365.83984 0.000987
19366.11914 0.000996
19366.41016 0.001038
19366.68945 0.001081
19366.97070 0.001123
19367.25977 0.001165
19367.53906 0.001208
19367.83008 0.00125
19368.10938 0.001211
19368.40039 0.001044
19368.67969 0.000878
19368.96094 0.000711
19369.25000 0.000545
19369.52930 0.000379
19369.82031 0.000213
19370.09961 0.000144
19370.38086 0.000253
19370.66992 0.000362
19370.94922 0.000471
19371.24023 0.00058
19371.51953 0.000689
19371.81055 0.000798
19372.08984 0.00089
19372.36914 0.000947
19372.66016 0.001003
19372.93945 0.00106
19373.23047 0.001116
19373.50977 0.001172
19373.78906 0.001228
19374.08008 0.001277
19374.36914 0.001305
19374.65039 0.001333
19374.92969 0.001362
19375.22070 0.00139
19375.50000 0.001418
19375.78906 0.001447
19376.07031 0.00147
19376.34961 0.001476
19376.64062 0.001483
19376.91992 0.00149
19377.21094 0.001497
19377.49023 0.001504
19377.77930 0.001511
19378.06055 0.0015
19378.33984 0.001426
19378.63086 0.00135
19378.91016 0.001275
19379.19922 0.0012
19379.48047 0.001125
19379.76953 0.00105
19380.05078 0.000981
19380.33008 0.000942
19380.61914 0.000902
19380.90039 0.000863
19381.18945 0.000823
19381.47070 0.000784
19381.75977 0.000745
19382.03906 0.00072
19382.33008 0.000788
19382.60938 0.000856
19382.89062 0.000924
19383.17969 0.000991
19383.46094 0.001059
19383.75000 0.001127
19384.02930 0.001189
19384.32031 0.001203
19384.59961 0.001217
19384.88086 0.001231
19385.16992 0.001244
19385.44922 0.001258
19385.74023 0.001272
19386.01953 0.001283
19386.31055 0.001252
19386.58984 0.001222
19386.88086 0.001191
19387.16016 0.001161
19387.44922 0.001131
19387.73047 0.0011
19388.00977 0.001071
19388.30078 0.001058
19388.58008 0.001044
19388.86914 0.001031
19389.15039 0.001018
19389.43945 0.001005
19389.72070 0.000991
19390.00977 0.00098
19390.28906 0.001065
19390.57031 0.00115
19390.85938 0.001236
19391.14062 0.001321
19391.42969 0.001406
19391.71094 0.001491
19392.00000 0.001576
19392.27930 0.001502
19392.57031 0.001426
19392.84961 0.00135
19393.13086 0.001274
19393.41992 0.001198
19393.69922 0.001122
19393.99023 0.001046
19394.26953 0.001087
19394.56055 0.001133
19394.83984 0.001179
19395.13086 0.001226
19395.41016 0.001272
19395.69922 0.001318
19395.98047 0.001364
19396.26953 0.001375
19396.55078 0.001384
19396.83008 0.001392
19397.11914 0.001401
19397.40039 0.001409
19397.68945 0.001417
19397.97070 0.001426
19398.25977 0.001386
19398.53906 0.001341
19398.83008 0.001297
19399.10938 0.001252
19399.40039 0.001207
19399.67969 0.001162
19399.96094 0.001117
19400.25000 0.001278
19400.53906 0.001467
19400.82031 0.001656
19401.09961 0.001845
19401.39062 0.002035
19401.66992 0.002225
19401.96094 0.002413
19402.24023 0.002364
19402.52930 0.002274
19402.81055 0.002183
19403.09961 0.002093
19403.38086 0.002003
19403.66992 0.001912
19403.94922 0.001822
19404.23047 0.001779
19404.51953 0.001746
19404.80078 0.001714
19405.08984 0.001681
19405.36914 0.001648
19405.66016 0.001615
19405.93945 0.001583
19406.23047 0.001558
19406.50977 0.001536
19406.80078 0.001514
19407.08008 0.001491
19407.36914 0.001469
19407.65039 0.001446
19407.93945 0.001424
19408.22070 0.001478
19408.50977 0.001554
19408.78906 0.001631
19409.08008 0.001707
19409.35938 0.001783
19409.64062 0.001859
19409.92969 0.001935
19410.21094 0.001947
19410.50000 0.001938
19410.78906 0.00193
19411.07031 0.001921
19411.34961 0.001912
19411.64062 0.001904
19411.91992 0.001895
19412.21094 0.001903
19412.49023 0.001917
19412.77930 0.001931
19413.06055 0.001945
19413.34961 0.00196
19413.63086 0.001974
19413.91992 0.001988
19414.19922 0.001902
19414.49023 0.001775
19414.76953 0.00165
19415.06055 0.001523
19415.33984 0.001396
19415.63086 0.00127
19415.91016 0.001143
19416.19922 0.001104
19416.48047 0.001104
19416.76953 0.001103
19417.05078 0.001103
19417.33984 0.001103
19417.61914 0.001102
19417.91016 0.001102
19418.18945 0.001115
19418.48047 0.001135
19418.75977 0.001155
19419.03906 0.001175
19419.33008 0.001196
19419.61914 0.001216
19419.90039 0.001236
19420.18945 0.001352
19420.47070 0.001521
19420.75977 0.001689
19421.03906 0.001858
19421.32031 0.002025
19421.60938 0.002193
19421.89062 0.002362
19422.17969 0.002406
19422.46094 0.002378
19422.75000 0.002349
19423.03906 0.002321
19423.32031 0.002292
19423.60938 0.002264
19423.89062 0.002235
19424.16992 0.002164
19424.46094 0.002066
19424.74023 0.001967
19425.02930 0.001869
19425.31055 0.00177
19425.59961 0.001672
19425.88086 0.001573
19426.16992 0.001603
19426.46094 0.001718
19426.74023 0.001834
19427.02930 0.001949
19427.31055 0.002065
19427.59961 0.002181
19427.88086 0.002296
19428.16992 0.002357
19428.44922 0.002377
19428.73047 0.002398
19429.01953 0.002419
19429.30078 0.002439
19429.58984 0.00246
19429.86914 0.002481
19430.16016 0.002433
19430.44922 0.002334
19430.73047 0.002234
19431.01953 0.002134
19431.30078 0.002034
19431.58984 0.001934
19431.86914 0.001834
19432.16016 0.001689
19432.43945 0.001507
19432.73047 0.001324
19433.00977 0.001142
19433.30078 0.00096
19433.58008 0.000778
19433.86914 0.000595
19434.15039 0.000596
19434.43945 0.000755
19434.72070 0.000914
19435.00977 0.001074
19435.28906 0.001233
19435.58008 0.001392
19435.85938 0.001552
19436.15039 0.001673
19436.42969 0.001759
19436.72070 0.001845
19437.00000 0.001931
19437.28906 0.002017
19437.57031 0.002103
19437.85938 0.002189
19438.14062 0.002219
19438.42969 0.002193
19438.71094 0.002168
19439.00000 0.002142
19439.28906 0.002117
19439.57031 0.002091
19439.85938 0.002065
19440.14062 0.00204
19440.42969 0.002014
19440.71094 0.001988
19441.00000 0.001962
19441.27930 0.001936
19441.57031 0.00191
19441.84961 0.001884
19442.14062 0.001925
19442.41992 0.002039
19442.71094 0.002152
19442.99023 0.002265
19443.27930 0.002378
19443.56055 0.002492
19443.84961 0.002605
19444.13086 0.00266
19444.41992 0.002649
19444.71094 0.002639
19444.99023 0.002628
19445.27930 0.002618
19445.56055 0.002607
19445.84961 0.002597
19446.13086 0.00256
19446.41992 0.002493
19446.69922 0.002426
19446.99023 0.002359
19447.26953 0.002292
19447.56055 0.002225
19447.83984 0.002158
19448.13086 0.00214
19448.41016 0.002182
19448.69922 0.002224
19448.99023 0.002265
19449.26953 0.002307
19449.56055 0.002349
19449.83984 0.002391
19450.13086 0.002374
19450.41016 0.002286
19450.69922 0.002197
19450.98047 0.002109
19451.26953 0.00202
19451.55078 0.001931
19451.83984 0.001843
19452.13086 0.001811
19452.41016 0.00185
19452.69922 0.00189
19452.98047 0.00193
19453.26953 0.00197
19453.55078 0.00201
19453.83984 0.00205
19454.11914 0.002119
19454.41016 0.002224
19454.68945 0.002329
19454.98047 0.002435
19455.25977 0.00254
19455.55078 0.002646
19455.83984 0.002752
19456.11914 0.002788
19456.41016 0.00273
19456.68945 0.002672
19456.98047 0.002614
19457.25977 0.002556
19457.55078 0.002497
19457.83008 0.002439
19458.11914 0.002429
19458.40039 0.002486
19458.68945 0.002543
19458.97070 0.0026
19459.25977 0.002657
19459.55078 0.002714
19459.83008 0.002771
19460.11914 0.002774
19460.40039 0.002699
19460.68945 0.002623
19460.97070 0.002548
19461.25977 0.002473
19461.53906 0.002398
19461.83008 0.002323
19462.11914 0.002313
19462.40039 0.002397
19462.68945 0.002481
19462.97070 0.002565
19463.25977 0.002649
19463.53906 0.002734
19463.83008 0.002818
19464.11914 0.002892
19464.40039 0.00295
19464.68945 0.003009
19464.97070 0.003068
19465.25977 0.003127
19465.53906 0.003185
19465.83008 0.003244
19466.11914 0.003229
19466.40039 0.003106
19466.68945 0.002982
19466.97070 0.002858
19467.25977 0.002734
19467.53906 0.00261
19467.83008 0.002486
19468.10938 0.002443
19468.40039 0.002521
19468.68945 0.002599
19468.97070 0.002677
19469.25977 0.002755
19469.53906 0.002834
19469.83008 0.002911
19470.10938 0.002973
19470.40039 0.00301
19470.68945 0.003047
19470.97070 0.003084
19471.25977 0.003121
19471.53906 0.003158
19471.83008 0.003196
19472.10938 0.00322
19472.40039 0.003224
19472.68945 0.003228
19472.97070 0.003232
19473.25977 0.003236
19473.53906 0.003241
19473.83008 0.003245
19474.10938 0.003248
19474.40039 0.003249
19474.68945 0.003251
19474.97070 0.003252
19475.25977 0.003253
19475.53906 0.003255
19475.83008 0.003256
19476.10938 0.003205
19476.40039 0.003073
19476.68945 0.002941
19476.97070 0.002809
19477.25977 0.002678
19477.53906 0.002545
19477.83008 0.002414
19478.10938 0.002434
19478.40039 0.002685
19478.68945 0.002935
19478.97070 0.003184
19479.25977 0.003436
19479.53906 0.003685
19479.83008 0.003935
19480.11914 0.004004
19480.40039 0.003801
19480.68945 0.003598
19480.97070 0.003394
19481.25977 0.003192
19481.53906 0.002989
19481.83008 0.002785
19482.11914 0.002685
19482.40039 0.002737
19482.68945 0.002789
19482.97070 0.002841
19483.25977 0.002894
19483.53906 0.002946
19483.83008 0.002997
19484.11914 0.003079
19484.40039 0.003204
19484.68945 0.003328
19484.97070 0.003453
19485.25977 0.003577
19485.53906 0.003701
19485.83008 0.003826
19486.11914 0.003865
19486.40039 0.003781
19486.68945 0.003697
19486.97070 0.003614
19487.25977 0.003529
19487.55078 0.003446
19487.83008 0.003361
19488.11914 0.003292
19488.40039 0.003243
19488.68945 0.003194
19488.98047 0.003144
19489.25977 0.003095
19489.55078 0.003046
19489.83008 0.002997
19490.11914 0.003033
19490.41016 0.003187
19490.68945 0.003341
19490.98047 0.003495
19491.25977 0.003648
19491.55078 0.003803
19491.83984 0.003957
19492.11914 0.003968
19492.41016 0.003791
19492.69922 0.003612
19492.98047 0.003435
19493.26953 0.003257
19493.55078 0.003079
19493.83984 0.002902
19494.13086 0.002836
19494.41016 0.002917
19494.69922 0.002998
19494.98047 0.003079
19495.26953 0.00316
19495.55078 0.00324
19495.83984 0.003322
19496.13086 0.003403
19496.41016 0.003486
19496.69922 0.00357
19496.98047 0.003653
19497.26953 0.003737
19497.56055 0.00382
19497.83984 0.003903
19498.13086 0.003927
19498.41992 0.003878
19498.69922 0.003829
19498.99023 0.00378
19499.26953 0.003732
19499.56055 0.003683
19499.84961 0.003634
19500.13086 0.00366
19500.41992 0.00377
19500.71094 0.003881
19500.99023 0.003991
19501.27930 0.004102
19501.56055 0.004212
19501.84961 0.004323
19502.13086 0.004336
19502.41992 0.00424
19502.71094 0.004145
19502.99023 0.004049
19503.27930 0.003954
19503.57031 0.003858
19503.84961 0.003762
19504.14062 0.0037
19504.41992 0.003674
19504.71094 0.003647
19505.00000 0.003621
19505.27930 0.003595
19505.57031 0.003569
19505.85938 0.003542
19506.14062 0.00359
19506.42969 0.003714
19506.71094 0.003836
19507.00000 0.00396
19507.28906 0.004084
19507.57031 0.004207
19507.85938 0.004331
19508.14062 0.004388
19508.42969 0.004382
19508.72070 0.004377
19509.00000 0.004371
19509.28906 0.004365
19509.58008 0.004359
19509.85938 0.004353
19510.15039 0.004355
19510.43945 0.004363
19510.72070 0.004371
19511.00977 0.00438
19511.28906 0.004388
19511.58008 0.004397
19511.86914 0.004405
19512.15039 0.004439
19512.43945 0.004494
19512.72070 0.004549
19513.00977 0.004605
19513.30078 0.00466
19513.58008 0.004715
19513.86914 0.004771
19514.16016 0.004806
19514.43945 0.004823
19514.73047 0.004841
19515.01953 0.004859
19515.30078 0.004877
19515.58984 0.004895
19515.86914 0.004913
19516.16016 0.004858
19516.44922 0.004747
19516.73047 0.004636
19517.01953 0.004526
19517.31055 0.004415
19517.58984 0.004305
19517.88086 0.004194
19518.16992 0.004129
19518.44922 0.004099
19518.74023 0.004068
19519.02930 0.004038
19519.31055 0.004008
19519.59961 0.003977
19519.88086 0.003947
19520.16992 0.004015
19520.46094 0.004152
19520.74023 0.004288
19521.02930 0.004425
19521.32031 0.004562
19521.59961 0.004698
19521.89062 0.004835
19522.17969 0.0049
19522.46094 0.004919
19522.75000 0.004937
19523.03906 0.004956
19523.32031 0.004975
19523.60938 0.004994
19523.89062 0.005012
19524.17969 0.005026
19524.47070 0.005036
19524.75000 0.005047
19525.03906 0.005057
19525.33008 0.005068
19525.60938 0.005078
19525.90039 0.005089
19526.18945 0.005118
19526.47070 0.005157
19526.75977 0.005196
19527.03906 0.005236
19527.33008 0.005275
19527.61914 0.005314
19527.90039 0.005353
19528.18945 0.005322
19528.48047 0.005254
19528.75977 0.005187
19529.05078 0.00512
19529.33984 0.005052
19529.61914 0.004985
19529.91016 0.004918
19530.19922 0.004942
19530.48047 0.005006
19530.76953 0.005071
19531.06055 0.005136
19531.33984 0.0052
19531.63086 0.005265
19531.91992 0.00533
19532.19922 0.005355
19532.49023 0.005365
19532.77930 0.005374
19533.06055 0.005384
19533.34961 0.005393
19533.64062 0.005403
19533.91992 0.005412
19534.21094 0.005453
19534.50000 0.005505
19534.77930 0.005558
19535.07031 0.00561
19535.35938 0.005662
19535.64062 0.005715
19535.92969 0.005767
19536.21094 0.005749
19536.50000 0.005707
19536.78906 0.005666
19537.08008 0.005624
19537.35938 0.005583
19537.65039 0.005541
19537.93945 0.0055
19538.22070 0.005491
19538.50977 0.005492
19538.78906 0.005493
19539.08008 0.005495
19539.36914 0.005496
19539.66016 0.005497
19539.93945 0.005498
19540.23047 0.005582
19540.51953 0.005687
19540.80078 0.005792
19541.08984 0.005897
19541.36914 0.006001
19541.66016 0.006106
19541.94922 0.006211
19542.24023 0.006212
19542.51953 0.00619
19542.81055 0.006168
19543.09961 0.006146
19543.38086 0.006125
19543.66992 0.006103
19543.96094 0.006081
19544.24023 0.006051
19544.52930 0.006019
19544.82031 0.005987
19545.09961 0.005955
19545.39062 0.005923
19545.67969 0.00589
19545.96094 0.005859
19546.25000 0.0059
19546.53906 0.005951
19546.82031 0.006003
19547.10938 0.006055
19547.40039 0.006107
19547.67969 0.006158
19547.97070 0.00621
19548.25977 0.006268
19548.53906 0.006328
19548.83008 0.006387
19549.11914 0.006446
19549.41016 0.006506
19549.68945 0.006565
19549.98047 0.006624
19550.26953 0.006657
19550.55078 0.006687
19550.83984 0.006718
19551.13086 0.006748
19551.41016 0.006779
19551.69922 0.006809
19551.99023 0.006839
19552.26953 0.006811
19552.56055 0.006779
19552.84961 0.006748
19553.13086 0.006716
19553.41992 0.006685
19553.71094 0.006653
19554.00000 0.006622
19554.27930 0.006636
19554.57031 0.006651
19554.85938 0.006665
19555.14062 0.00668
19555.42969 0.006695
19555.72070 0.00671
19556.00000 0.006726
19556.28906 0.006825
19556.58008 0.006925
19556.86914 0.007025
19557.15039 0.007124
19557.43945 0.007223
19557.72070 0.007323
19558.00977 0.007417
19558.30078 0.007375
19558.58984 0.007333
19558.86914 0.007291
19559.16016 0.007249
19559.44922 0.007207
19559.73047 0.007165
19560.01953 0.007135
19560.31055 0.007253
19560.59961 0.00737
19560.88086 0.007487
19561.16992 0.007605
19561.46094 0.007722
19561.74023 0.007838
19562.02930 0.007941
19562.32031 0.007917
19562.59961 0.007893
19562.89062 0.007868
19563.17969 0.007844
19563.46094 0.00782
19563.75000 0.007795
19564.03906 0.00778
19564.33008 0.007822
19564.60938 0.007864
19564.90039 0.007906
19565.18945 0.007948
19565.47070 0.00799
19565.75977 0.008031
19566.05078 0.008058
19566.33984 0.008013
19566.61914 0.007967
19566.91016 0.007922
19567.19922 0.007876
19567.48047 0.007831
19567.76953 0.007785
19568.06055 0.007746
19568.34961 0.007733
19568.63086 0.007719
19568.91992 0.007705
19569.21094 0.007692
19569.49023 0.007678
19569.77930 0.007665
19570.07031 0.007679
19570.35938 0.007784
19570.64062 0.007888
19570.92969 0.007993
19571.22070 0.008097
19571.50000 0.008201
19571.78906 0.008306
19572.08008 0.008395
19572.36914 0.008445
19572.65039 0.008494
19572.93945 0.008544
19573.23047 0.008593
19573.50977 0.008642
19573.80078 0.008692
19574.08984 0.008697
19574.36914 0.008601
19574.66016 0.008505
19574.94922 0.008408
19575.24023 0.008312
19575.52930 0.008216
19575.81055 0.008121
19576.09961 0.008118
19576.39062 0.008292
19576.66992 0.008466
19576.96094 0.00864
19577.25000 0.008814
19577.53906 0.008987
19577.82031 0.009161
19578.10938 0.009254
19578.40039 0.009213
19578.67969 0.009172
19578.97070 0.009132
19579.25977 0.009091
19579.55078 0.00905
19579.83008 0.00901
19580.11914 0.009019
19580.41016 0.009095
19580.69922 0.009171
19580.98047 0.009247
19581.26953 0.009323
19581.56055 0.009399
19581.83984 0.009475
19582.13086 0.00953
19582.41992 0.009562
19582.71094 0.009593
19582.99023 0.009625
19583.27930 0.009656
19583.57031 0.009688
19583.85938 0.009719
19584.14062 0.00977
19584.42969 0.00984
19584.72070 0.009911
19585.00977 0.009981
19585.28906 0.010051
19585.58008 0.010122
19585.86914 0.010192
19586.15039 0.010254
19586.43945 0.010309
19586.73047 0.010364
19587.01953 0.01042
19587.30078 0.010475
19587.58984 0.01053
19587.88086 0.010585
19588.16992 0.01057
19588.44922 0.010504
19588.74023 0.010438
19589.02930 0.010371
19589.32031 0.010305
19589.59961 0.010239
19589.89062 0.010173
19590.17969 0.010167
19590.46094 0.010198
19590.75000 0.01023
19591.03906 0.010261
19591.33008 0.010292
19591.61914 0.010324
19591.90039 0.010355
19592.18945 0.010355
19592.48047 0.010338
19592.76953 0.010322
19593.05078 0.010306
19593.33984 0.01029
19593.63086 0.010274
19593.91992 0.010257
19594.19922 0.010316
19594.49023 0.010407
19594.77930 0.010497
19595.06055 0.010587
19595.34961 0.010678
19595.64062 0.010768
19595.92969 0.010858
19596.21094 0.010856
19596.50000 0.010822
19596.78906 0.010788
19597.08008 0.010755
19597.36914 0.010721
19597.65039 0.010688
19597.93945 0.010654
19598.23047 0.010699
19598.51953 0.010764
19598.80078 0.010829
19599.08984 0.010894
19599.38086 0.01096
19599.66992 0.011025
19599.94922 0.01109
19600.24023 0.01119
19600.52930 0.011297
19600.82031 0.011403
19601.09961 0.01151
19601.39062 0.011616
19601.67969 0.011723
19601.97070 0.011829
19602.25000 0.01184
19602.53906 0.011839
19602.83008 0.011838
19603.11914 0.011837
19603.40039 0.011836
19603.68945 0.011834
19603.98047 0.011833
19604.26953 0.011912
19604.55078 0.011996
19604.83984 0.012081
19605.13086 0.012166
19605.41992 0.012251
19605.71094 0.012335
19605.99023 0.01242
19606.27930 0.012413
19606.57031 0.012404
19606.85938 0.012395
19607.14062 0.012386
19607.42969 0.012376
19607.72070 0.012367
19608.00977 0.012356
19608.28906 0.012281
19608.58008 0.012205
19608.86914 0.012129
19609.16016 0.012053
19609.44922 0.011978
19609.73047 0.011902
19610.01953 0.011847
19610.31055 0.012057
19610.59961 0.012267
19610.88086 0.012479
19611.16992 0.012689
19611.46094 0.012899
19611.75000 0.01311
19612.03906 0.013311
19612.32031 0.013442
19612.60938 0.013575
19612.90039 0.013707
19613.18945 0.013839
19613.47070 0.013972
19613.75977 0.014103
19614.05078 0.014204
19614.33984 0.014149
19614.63086 0.014094
19614.91016 0.014039
19615.19922 0.013984
19615.49023 0.013929
19615.77930 0.013874
19616.06055 0.013867
19616.34961 0.014025
19616.64062 0.014184
19616.92969 0.014342
19617.21094 0.0145
19617.50000 0.014659
19617.78906 0.014816
19618.08008 0.014947
19618.36914 0.015004
19618.65039 0.01506
19618.93945 0.015118
19619.23047 0.015174
19619.51953 0.015231
19619.81055 0.015288
19620.08984 0.015327
19620.38086 0.015329
19620.66992 0.015331
19620.96094 0.015333
19621.25000 0.015335
19621.52930 0.015338
19621.82031 0.01534
19622.10938 0.015363
19622.40039 0.015421
19622.68945 0.015479
19622.97070 0.015537
19623.25977 0.015595
19623.55078 0.015653
19623.83984 0.015711
19624.11914 0.015713
19624.41016 0.015642
19624.69922 0.015571
19624.99023 0.0155
19625.27930 0.015429
19625.56055 0.015359
19625.84961 0.015288
19626.14062 0.015318
19626.42969 0.015455
19626.72070 0.015593
19627.00000 0.015729
19627.28906 0.015867
19627.58008 0.016004
19627.86914 0.016141
19628.16016 0.01625
19628.43945 0.016335
19628.73047 0.01642
19629.01953 0.016505
19629.31055 0.016591
19629.59961 0.016675
19629.88086 0.016761
19630.16992 0.016839
19630.46094 0.016914
19630.75000 0.016988
19631.03906 0.017063
19631.32031 0.017137
19631.60938 0.017212
19631.90039 0.017286
19632.18945 0.01727
19632.48047 0.017204
19632.75977 0.017139
19633.05078 0.017073
19633.33984 0.017008
19633.63086 0.016942
19633.91992 0.016877
19634.21094 0.017036
19634.49023 0.017285
19634.77930 0.017536
19635.07031 0.017786
19635.35938 0.018037
19635.64062 0.018286
19635.92969 0.018537
19636.22070 0.018607
19636.50977 0.018623
19636.80078 0.018639
19637.08984 0.018655
19637.36914 0.018672
19637.66016 0.018688
19637.94922 0.018704
19638.24023 0.018687
19638.52930 0.018664
19638.81055 0.018641
19639.09961 0.018618
19639.39062 0.018595
19639.67969 0.018572
19639.97070 0.018549
19640.25977 0.018598
19640.53906 0.018656
19640.83008 0.018714
19641.11914 0.018772
19641.41016 0.018831
19641.69922 0.018889
19641.98047 0.018947
19642.26953 0.019037
19642.56055 0.019129
19642.84961 0.019221
19643.14062 0.019312
19643.42969 0.019404
19643.71094 0.019495
19644.00000 0.019588
19644.28906 0.019733
19644.58008 0.019877
19644.86914 0.020022
19645.15039 0.020166
19645.43945 0.020311
19645.73047 0.020455
19646.01953 0.020595
19646.31055 0.020669
19646.59961 0.020742
19646.88086 0.020816
19647.16992 0.020889
19647.46094 0.020963
19647.75000 0.021036
19648.03906 0.021109
19648.33008 0.021181
19648.60938 0.021252
19648.90039 0.021323
19649.18945 0.021395
19649.48047 0.021466
19649.76953 0.021537
19650.05078 0.021603
19650.33984 0.021649
19650.63086 0.021694
19650.91992 0.021739
19651.21094 0.021785
19651.50000 0.02183
19651.78906 0.021875
19652.07031 0.021926
19652.35938 0.021992
19652.65039 0.022059
19652.93945 0.022125
19653.23047 0.022191
19653.51953 0.022258
19653.80078 0.022325
19654.08984 0.022424
19654.38086 0.022594
19654.66992 0.022764
19654.96094 0.022933
19655.25000 0.023103
19655.53906 0.023273
19655.82031 0.023442
19656.10938 0.023606
19656.40039 0.023763
19656.68945 0.023919
19656.98047 0.024076
19657.26953 0.024232
19657.55078 0.024388
19657.83984 0.024545
19658.13086 0.024647
19658.41992 0.024684
19658.71094 0.024721
19659.00000 0.024758
19659.27930 0.024795
19659.57031 0.024832
19659.85938 0.024869
19660.15039 0.024866
19660.43945 0.024826
19660.73047 0.024787
19661.00977 0.024747
19661.30078 0.024708
19661.58984 0.024668
19661.88086 0.024629
19662.16992 0.024691
19662.46094 0.024828
19662.75000 0.024964
19663.02930 0.025099
19663.32031 0.025235
19663.60938 0.025371
19663.90039 0.025506
19664.18945 0.025702
19664.48047 0.025929
19664.76953 0.026156
19665.05078 0.026382
19665.33984 0.02661
19665.63086 0.026837
19665.91992 0.027065
19666.21094 0.027114
19666.50000 0.027095
19666.78906 0.027076
19667.07031 0.027057
19667.35938 0.027038
19667.65039 0.027019
19667.93945 0.027001
19668.23047 0.027154
19668.51953 0.027351
19668.80078 0.02755
19669.08984 0.027748
19669.38086 0.027947
19669.66992 0.028144
19669.96094 0.028343
19670.25000 0.028166
19670.53906 0.027926
19670.82031 0.027688
19671.10938 0.027449
19671.40039 0.027209
19671.68945 0.02697
19671.98047 0.026732
19672.26953 0.027041
19672.56055 0.027395
19672.84961 0.027749
19673.13086 0.028102
19673.41992 0.028453
19673.71094 0.028807
19674.00000 0.02916
19674.28906 0.02941
19674.58008 0.029659
19674.86914 0.029906
19675.15039 0.030155
19675.43945 0.030404
19675.73047 0.030654
19676.01953 0.030891
19676.31055 0.030978
19676.59961 0.031066
19676.89062 0.031154
19677.17969 0.031241
19677.46094 0.031329
19677.75000 0.031416
19678.03906 0.031497
19678.33008 0.031535
19678.61914 0.031573
19678.91016 0.03161
19679.19922 0.031648
19679.48047 0.031685
19679.76953 0.031723
19680.06055 0.031763
19680.34961 0.031809
19680.64062 0.031855
19680.92969 0.031901
19681.22070 0.031948
19681.50977 0.031993
19681.78906 0.03204
19682.08008 0.03211
19682.36914 0.032238
19682.66016 0.032366
19682.94922 0.032494
19683.24023 0.032623
19683.52930 0.03275
19683.82031 0.032878
19684.10938 0.033019
19684.39062 0.03318
19684.67969 0.033342
19684.97070 0.033504
19685.25977 0.033665
19685.55078 0.033827
19685.83984 0.033988
19686.13086 0.034142
19686.41992 0.034287
19686.71094 0.034431
19686.99023 0.034576
19687.27930 0.034721
19687.57031 0.034866
19687.85938 0.035011
19688.15039 0.035185
19688.43945 0.035385
19688.73047 0.035586
19689.01953 0.035788
19689.30078 0.035989
19689.58984 0.036191
19689.88086 0.036392
19690.16992 0.03655
19690.46094 0.036678
19690.75000 0.036806
19691.03906 0.036934
19691.33008 0.037062
19691.61914 0.03719
19691.90039 0.037317
19692.18945 0.037427
19692.48047 0.037529
19692.76953 0.037631
19693.06055 0.037733
19693.34961 0.037834
19693.64062 0.037936
19693.92969 0.038038
19694.22070 0.03817
19694.50977 0.038311
19694.78906 0.038453
19695.08008 0.038594
19695.36914 0.038736
19695.66016 0.038877
19695.94922 0.039019
19696.24023 0.039135
19696.52930 0.039246
19696.82031 0.039357
19697.10938 0.039468
19697.39062 0.039578
19697.67969 0.039689
19697.97070 0.0398
19698.25977 0.039936
19698.55078 0.040075
19698.83984 0.040214
19699.13086 0.040353
19699.41992 0.040492
19699.71094 0.040631
19700.00000 0.04077
19700.28906 0.041036
19700.57031 0.041303
19700.85938 0.041571
19701.15039 0.041838
19701.43945 0.042106
19701.73047 0.042373
19702.01953 0.042626
19702.31055 0.042679
19702.59961 0.042733
19702.89062 0.042786
19703.17969 0.04284
19703.46094 0.042893
19703.75000 0.042947
19704.03906 0.043021
19704.33008 0.043213
19704.61914 0.043405
19704.91016 0.043597
19705.19922 0.043788
19705.49023 0.043981
19705.77930 0.044173
19706.07031 0.044366
19706.35938 0.04456
19706.65039 0.044754
19706.93945 0.044948
19707.22070 0.045143
19707.50977 0.045337
19707.80078 0.045531
19708.08984 0.045727
19708.38086 0.045928
19708.66992 0.046128
19708.96094 0.046329
19709.25000 0.046529
19709.53906 0.04673
19709.83008 0.04693
19710.11914 0.047116
19710.40039 0.047279
19710.68945 0.047442
19710.98047 0.047606
19711.26953 0.047769
19711.56055 0.047932
19711.84961 0.048095
19712.14062 0.048284
19712.42969 0.048498
19712.72070 0.048713
19713.00977 0.048928
19713.30078 0.049143
19713.58984 0.049357
19713.88086 0.049572
19714.16016 0.049775
19714.46094 0.049971
19714.74023 0.050165
19715.02930 0.050359
19715.32031 0.050553
19715.60938 0.050748
19715.90039 0.050942
19716.18945 0.051091
19716.48047 0.051216
19716.76953 0.051342
19717.06055 0.051468
19717.34961 0.051594
19717.64062 0.051719
19717.92969 0.051845
19718.21094 0.052013
19718.50000 0.052196
19718.78906 0.052379
19719.08008 0.052561
19719.36914 0.052746
19719.66016 0.052928
19719.94922 0.053111
19720.24023 0.053286
19720.52930 0.05346
19720.82031 0.053633
19721.10938 0.053807
19721.40039 0.053982
19721.68945 0.054155
19721.98047 0.054329
19722.26953 0.054598
19722.55078 0.054876
19722.83984 0.055154
19723.13086 0.055433
19723.41992 0.055711
19723.71094 0.055989
19724.00000 0.056267
19724.28906 0.056534
19724.58008 0.056801
19724.86914 0.057071
19725.16016 0.057338
19725.44922 0.057605
19725.74023 0.057873
19726.02930 0.058134
19726.32031 0.058338
19726.60938 0.058544
19726.90039 0.058749
19727.18945 0.058953
19727.47070 0.059158
19727.75977 0.059363
19728.05078 0.05957
19728.33984 0.059784
19728.63086 0.059997
19728.91992 0.060211
19729.21094 0.060425
19729.50000 0.06064
19729.78906 0.060853
19730.08008 0.06106
19730.36914 0.061247
19730.66016 0.061435
19730.94922 0.061622
19731.24023 0.061809
19731.52930 0.061996
19731.82031 0.062183
19732.10938 0.062417
19732.40039 0.062726
19732.68945 0.063035
19732.97070 0.063344
19733.26953 0.063656
19733.55078 0.063965
19733.83984 0.064274
19734.13086 0.064514
19734.41992 0.064672
19734.71094 0.06483
19735.00000 0.064987
19735.28906 0.065145
19735.58008 0.065303
19735.86914 0.065461
19736.16016 0.065719
19736.44922 0.066058
19736.74023 0.066399
19737.02930 0.066737
19737.32031 0.067076
19737.60938 0.067415
19737.90039 0.067756
19738.18945 0.067956
19738.48047 0.068081
19738.76953 0.068206
19739.06055 0.068331
19739.34961 0.068456
19739.63086 0.068581
19739.92969 0.068706
19740.21094 0.06899
19740.50000 0.069328
19740.78906 0.069669
19741.08008 0.070007
19741.36914 0.070345
19741.66016 0.070684
19741.94922 0.071024
19742.24023 0.071139
19742.52930 0.07121
19742.82031 0.071282
19743.10938 0.071353
19743.40039 0.071424
19743.68945 0.071496
19743.98047 0.071567
19744.26953 0.071967
19744.56055 0.072394
19744.84961 0.072818
19745.14062 0.073242
19745.42969 0.073669
19745.72070 0.074093
19746.00977 0.074512
19746.30078 0.074735
19746.58984 0.074956
19746.88086 0.075177
19747.16992 0.0754
19747.46094 0.075621
19747.75000 0.075842
19748.03906 0.076065
19748.33008 0.076284
19748.61914 0.076504
19748.91016 0.076725
19749.19922 0.076944
19749.48047 0.077163
19749.77930 0.077384
19750.06055 0.077635
19750.35938 0.077998
19750.64062 0.078359
19750.92969 0.078719
19751.22070 0.079082
19751.50977 0.079442
19751.80078 0.079803
19752.08984 0.080125
19752.38086 0.080358
19752.66992 0.080593
19752.96094 0.080827
19753.25000 0.081061
19753.53906 0.081296
19753.83008 0.081529
19754.11914 0.081813
19754.41016 0.08216
19754.69922 0.082507
19754.99023 0.082857
19755.27930 0.083204
19755.57031 0.083554
19755.85938 0.083901
19756.15039 0.084202
19756.43945 0.084462
19756.73047 0.084721
19757.01953 0.084981
19757.31055 0.08524
19757.59961 0.085498
19757.89062 0.085759
19758.17969 0.086015
19758.47070 0.086272
19758.75977 0.086527
19759.05078 0.086783
19759.33984 0.087038
19759.63086 0.087293
19759.91992 0.087549
19760.21094 0.087894
19760.50000 0.088276
19760.78906 0.088656
19761.08008 0.089038
19761.36914 0.089417
19761.66016 0.089799
19761.94922 0.090178
19762.24023 0.09054
19762.52930 0.090901
19762.82031 0.09126
19763.10938 0.091621
19763.40039 0.09198
19763.68945 0.092341
19763.98047 0.092699
19764.26953 0.092953
19764.56055 0.093196
19764.84961 0.09344
19765.14062 0.093684
19765.42969 0.093928
19765.72070 0.094172
19766.00977 0.094417
19766.30078 0.094664
19766.58984 0.094914
19766.88086 0.095161
19767.16992 0.095411
19767.46094 0.095658
19767.75000 0.095908
19768.03906 0.096169
19768.33008 0.096517
19768.61914 0.096863
19768.91016 0.097211
19769.19922 0.097558
19769.49023 0.097906
19769.77930 0.098252
19770.07031 0.098575
19770.35938 0.098815
19770.65039 0.099056
19770.93945 0.099296
19771.23047 0.099538
19771.51953 0.099778
19771.81055 0.10002
19772.09961 0.100305
19772.39062 0.10068
19772.67969 0.101053
19772.97070 0.101428
19773.25977 0.1018
19773.55078 0.102176
19773.83984 0.102551
19774.13086 0.102905
19774.41992 0.103241
19774.71094 0.103574
19775.00000 0.103909
19775.28906 0.104242
19775.58008 0.104578
19775.86914 0.104911
19776.16016 0.105232
19776.44922 0.105541
19776.74023 0.105849
19777.02930 0.106159
19777.32031 0.106466
19777.60938 0.106776
19777.90039 0.107083
19778.18945 0.107408
19778.48047 0.107739
19778.76953 0.108068
19779.06055 0.1084
19779.34961 0.10873
19779.64062 0.109061
19779.92969 0.109391
19780.22070 0.109736
19780.51953 0.110084
19780.80078 0.110431
19781.09961 0.11078
19781.38086 0.111126
19781.67969 0.111475
19781.97070 0.111824
19782.25977 0.112189
19782.55078 0.112559
19782.83984 0.11293
19783.13086 0.113297
19783.41992 0.113668
19783.71094 0.114035
19784.00000 0.114405
19784.28906 0.114794
19784.58008 0.115181
19784.86914 0.11557
19785.16016 0.115957
19785.44922 0.116346
19785.74023 0.116735
19786.02930 0.117112
19786.32031 0.117404
19786.60938 0.117697
19786.90039 0.117987
19787.18945 0.118279
19787.48047 0.118572
19787.76953 0.118862
19788.06055 0.119163
19788.34961 0.119496
19788.64062 0.119826
19788.92969 0.120158
19789.22070 0.120491
19789.50977 0.120821
19789.80078 0.121154
19790.09961 0.121523
19790.38086 0.121965
19790.67969 0.12241
19790.97070 0.122855
19791.25977 0.123297
19791.55078 0.123742
19791.83984 0.124188
19792.13086 0.124578
19792.41992 0.124906
19792.71094 0.125233
19793.00000 0.125558
19793.28906 0.125886
19793.58008 0.126213
19793.86914 0.126539
19794.16016 0.126797
19794.44922 0.126999
19794.74023 0.127199
19795.02930 0.127401
19795.32031 0.127602
19795.60938 0.127804
19795.90039 0.128004
19796.18945 0.128326
19796.48047 0.128709
19796.76953 0.129089
19797.06055 0.129471
19797.35938 0.129854
19797.65039 0.130236
19797.93945 0.130616
19798.23047 0.131035
19798.51953 0.131464
19798.81055 0.131893
19799.09961 0.13232
19799.39062 0.132749
19799.67969 0.133178
19799.97070 0.133605
19800.25977 0.133904
19800.55078 0.134189
19800.83984 0.134473
19801.13086 0.134755
19801.41992 0.13504
19801.71094 0.135324
19802.00000 0.135608
19802.28906 0.135882
19802.58008 0.136158
19802.88086 0.136434
19803.16992 0.136709
19803.46094 0.136985
19803.75000 0.137259
19804.03906 0.137535
19804.33008 0.13781
19804.61914 0.138084
19804.91016 0.138357
19805.19922 0.138632
19805.49023 0.138907
19805.77930 0.139182
19806.07031 0.139501
19806.35938 0.139953
19806.65039 0.140407
19806.93945 0.140861
19807.23047 0.141315
19807.51953 0.141766
19807.81055 0.14222
19808.10938 0.142619
19808.40039 0.142922
19808.68945 0.143225
19808.98047 0.143526
19809.26953 0.143828
19809.56055 0.144131
19809.84961 0.144434
19810.14062 0.144733
19810.42969 0.145028
19810.72070 0.14532
19811.00977 0.145615
19811.30078 0.14591
19811.58984 0.146204
19811.88086 0.146499
19812.17969 0.146821
19812.46094 0.147158
19812.75977 0.147498
19813.05078 0.147838
19813.33984 0.148178
19813.63086 0.148518
19813.91992 0.148858
19814.21094 0.149241
19814.50000 0.149645
19814.78906 0.150049
19815.08008 0.150452
19815.36914 0.150856
19815.66016 0.15126
19815.96094 0.151664
19816.24023 0.151908
19816.53906 0.152126
19816.83008 0.152343
19817.11914 0.15256
19817.41016 0.152778
19817.69922 0.152995
19817.99023 0.153213
19818.27930 0.153539
19818.57031 0.153871
19818.85938 0.154204
19819.15039 0.154536
19819.43945 0.154869
19819.73047 0.155201
19820.02930 0.155534
19820.32031 0.155874
19820.60938 0.156213
19820.90039 0.156551
19821.18945 0.15689
19821.48047 0.15723
19821.76953 0.15757
19822.06055 0.157903
19822.34961 0.158211
19822.64062 0.158519
19822.92969 0.158827
19823.22070 0.159135
19823.51953 0.159443
19823.81055 0.159751
19824.09961 0.160054
19824.39062 0.160348
19824.67969 0.160644
19824.97070 0.160939
19825.25977 0.161235
19825.55078 0.161531
19825.83984 0.161827
19826.13086 0.162122
19826.41992 0.162418
19826.71094 0.162715
19827.00977 0.163011
19827.30078 0.163307
19827.58984 0.163603
19827.88086 0.163899
19828.16992 0.164189
19828.46094 0.164476
19828.75000 0.164762
19829.03906 0.165048
19829.33008 0.165333
19829.61914 0.165619
19829.91016 0.165905
19830.21094 0.166193
19830.50000 0.16648
19830.78906 0.166768
19831.08008 0.167056
19831.36914 0.167344
19831.66016 0.167631
19831.94922 0.167919
19832.24023 0.168261
19832.52930 0.168613
19832.82031 0.168965
19833.11914 0.169318
19833.41016 0.16967
19833.69922 0.170023
19833.99023 0.170375
19834.27930 0.17063
19834.57031 0.17088
19834.85938 0.17113
19835.15039 0.171381
19835.43945 0.171631
19835.73047 0.171881
19836.02930 0.172126
19836.32031 0.172316
19836.60938 0.172505
19836.90039 0.172695
19837.18945 0.172884
19837.48047 0.173074
19837.76953 0.173263
19838.06055 0.173475
19838.34961 0.173769
19838.64062 0.174062
19838.93945 0.174355
19839.23047 0.174649
19839.51953 0.174942
19839.81055 0.175238
19840.09961 0.175496
19840.39062 0.175691
19840.67969 0.175886
19840.97070 0.176081
19841.26953 0.176275
19841.56055 0.17647
19841.84961 0.176664
19842.14062 0.176891
19842.42969 0.177152
19842.72070 0.177414
19843.00977 0.177676
19843.30078 0.177937
19843.58984 0.178199
19843.88086 0.17846
19844.17969 0.178802
19844.47070 0.179195
19844.75977 0.17959
19845.05078 0.179984
19845.33984 0.180377
19845.63086 0.18077
19845.91992 0.181163
19846.21094 0.181367
19846.50977 0.181504
19846.80078 0.18164
19847.08984 0.181777
19847.38086 0.181913
19847.66992 0.18205
19847.96094 0.182188
19848.25000 0.182347
19848.53906 0.182509
19848.83984 0.182671
19849.13086 0.182834
19849.41992 0.182996
19849.71094 0.183158
19850.00000 0.18332
19850.28906 0.18355
19850.58008 0.18378
19850.88086 0.184009
19851.16992 0.184238
19851.46094 0.184467
19851.75000 0.184696
19852.03906 0.184921
19852.33008 0.18512
19852.61914 0.185318
19852.91016 0.185518
19853.21094 0.185717
19853.50000 0.185916
19853.78906 0.186114
19854.08008 0.18631
19854.36914 0.186496
19854.66016 0.186683
19854.94922 0.186871
19855.24023 0.187058
19855.53906 0.187245
19855.83008 0.187432
19856.11914 0.187593
19856.41016 0.187716
19856.69922 0.18784
19856.99023 0.187964
19857.27930 0.188087
19857.57031 0.18821
19857.86914 0.188334
19858.16016 0.188538
19858.44922 0.188813
19858.74023 0.189087
19859.02930 0.189361
19859.32031 0.189634
19859.60938 0.189908
19859.91016 0.190184
19860.19922 0.190339
19860.49023 0.190438
19860.77930 0.190537
19861.07031 0.190636
19861.35938 0.190736
19861.65039 0.190835
19861.94922 0.190934
19862.24023 0.191091
19862.52930 0.191261
19862.82031 0.191432
19863.10938 0.191602
19863.40039 0.191772
19863.68945 0.191942
19863.98047 0.192112
19864.27930 0.192281
19864.57031 0.192449
19864.85938 0.192617
19865.15039 0.192785
19865.43945 0.192954
19865.73047 0.193122
19866.02930 0.193288
19866.32031 0.19343
19866.60938 0.193574
19866.90039 0.193717
19867.18945 0.19386
19867.48047 0.194003
19867.77930 0.194147
19868.07031 0.194324
19868.35938 0.19462
19868.65039 0.194915
19868.93945 0.195212
19869.23047 0.195507
19869.51953 0.195802
19869.81055 0.196097
19870.10938 0.196286
19870.40039 0.196285
19870.68945 0.196285
19870.98047 0.196285
19871.26953 0.196285
19871.56055 0.196284
19871.85938 0.196284
19872.15039 0.196336
19872.43945 0.196439
19872.73047 0.196542
19873.01953 0.196645
19873.31055 0.196749
19873.60938 0.196852
19873.90039 0.196955
19874.18945 0.197052
19874.48047 0.197144
19874.76953 0.197237
19875.06055 0.197329
19875.35938 0.197423
19875.65039 0.197515
19875.93945 0.197608
19876.23047 0.197653
19876.51953 0.197684
19876.81055 0.197715
19877.10938 0.197747
19877.40039 0.197779
19877.68945 0.19781
19877.98047 0.197842
19878.26953 0.198025
19878.56055 0.198219
19878.85938 0.198415
19879.15039 0.198609
19879.43945 0.198803
19879.73047 0.198998
19880.01953 0.199189
19880.31055 0.199344
19880.60938 0.199498
19880.90039 0.199653
19881.18945 0.199807
19881.48047 0.199962
19881.76953 0.200116
19882.06055 0.200275
19882.35938 0.200456
19882.65039 0.200635
19882.93945 0.200815
19883.23047 0.200995
19883.51953 0.201174
19883.81055 0.201354
19884.10938 0.201514
19884.40039 0.201638
19884.68945 0.201764
19884.98047 0.201888
19885.26953 0.202013
19885.56055 0.202138
19885.85938 0.202262
19886.15039 0.202346
19886.43945 0.202389
19886.73047 0.202432
19887.01953 0.202475
19887.31055 0.202518
19887.60938 0.202562
19887.90039 0.202604
19888.18945 0.202641
19888.48047 0.202674
19888.76953 0.202707
19889.07031 0.20274
19889.35938 0.202773
19889.65039 0.202806
19889.93945 0.202839
19890.23047 0.202903
19890.52930 0.202974
19890.82031 0.203045
19891.10938 0.203117
19891.40039 0.203188
19891.68945 0.203259
19891.98047 0.20333
19892.27930 0.203392
19892.57031 0.203454
19892.85938 0.203515
19893.15039 0.203577
19893.43945 0.203638
19893.74023 0.2037
19894.02930 0.203754
19894.32031 0.203729
19894.60938 0.203704
19894.90039 0.203679
19895.19922 0.203654
19895.49023 0.203629
19895.77930 0.203604
19896.07031 0.203608
19896.35938 0.2037
19896.65039 0.203791
19896.94922 0.203883
19897.24023 0.203975
19897.52930 0.204067
19897.82031 0.204159
19898.10938 0.204225
19898.41016 0.204253
19898.69922 0.20428
19898.99023 0.204308
19899.27930 0.204336
19899.57031 0.204364
19899.86914 0.204391
19900.16016 0.204423
19900.44922 0.204459
19900.74023 0.204495
19901.02930 0.204531
19901.33008 0.204567
19901.61914 0.204603
19901.91016 0.204639
19902.19922 0.20471
19902.49023 0.204798
19902.78906 0.204885
19903.08008 0.204972
19903.36914 0.205059
19903.66016 0.205146
19903.94922 0.205233
19904.25000 0.205326
19904.53906 0.205418
19904.83008 0.205512
19905.11914 0.205605
19905.41016 0.205698
19905.71094 0.205791
19906.00000 0.205883
19906.28906 0.205853
19906.58008 0.205821
19906.86914 0.205789
19907.16992 0.205757
19907.46094 0.205726
19907.75000 0.205694
19908.03906 0.205664
19908.33984 0.205648
19908.63086 0.205633
19908.91992 0.205617
19909.21094 0.205601
19909.50000 0.205585
19909.78906 0.205569
19910.08984 0.205583
19910.38086 0.205663
19910.66992 0.205744
19910.96094 0.205825
19911.25977 0.205905
19911.55078 0.205986
19911.83984 0.206066
19912.13086 0.206107
19912.42969 0.206101
19912.72070 0.206094
19913.00977 0.206088
19913.30078 0.206081
19913.58984 0.206074
19913.88086 0.206068
19914.17969 0.20605
19914.47070 0.206024
19914.75977 0.205999
19915.05078 0.205973
19915.34961 0.205948
19915.64062 0.205922
19915.92969 0.205897
19916.22070 0.205942
19916.51953 0.206009
19916.81055 0.206076
19917.09961 0.206143
19917.39062 0.20621
19917.67969 0.206277
19917.98047 0.206344
19918.26953 0.206255
19918.56055 0.206153
19918.84961 0.20605
19919.15039 0.205948
19919.43945 0.205846
19919.73047 0.205743
19920.01953 0.205659
19920.31055 0.205789
19920.60938 0.205919
19920.90039 0.206049
19921.18945 0.206179
19921.48047 0.20631
19921.77930 0.206439
19922.07031 0.206538
19922.35938 0.206535
19922.65039 0.206531
19922.94922 0.206527
19923.24023 0.206523
19923.52930 0.20652
19923.82031 0.206516
19924.11914 0.20651
19924.41016 0.2065
19924.69922 0.206489
19924.99023 0.206479
19925.27930 0.206469
19925.58008 0.206459
19925.86914 0.206449
19926.16016 0.206454
19926.44922 0.206471
19926.75000 0.206488
19927.03906 0.206506
19927.33008 0.206523
19927.61914 0.20654
19927.91992 0.206558
19928.21094 0.206503
19928.50000 0.206419
19928.78906 0.206335
19929.08984 0.206251
19929.38086 0.206167
19929.66992 0.206083
19929.96094 0.205999
19930.25000 0.206116
19930.55078 0.206262
19930.83984 0.206409
19931.13086 0.206556
19931.41992 0.206701
19931.72070 0.206848
19932.00977 0.206988
19932.30078 0.206924
19932.58984 0.20686
19932.89062 0.206796
19933.17969 0.206732
19933.47070 0.206668
19933.75977 0.206604
19934.06055 0.206548
19934.34961 0.20653
19934.64062 0.206511
19934.92969 0.206493
19935.23047 0.206474
19935.51953 0.206456
19935.81055 0.206437
19936.09961 0.206384
19936.40039 0.206267
19936.68945 0.20615
19936.98047 0.206033
19937.26953 0.205917
19937.57031 0.2058
19937.85938 0.205683
19938.15039 0.205709
19938.43945 0.205867
19938.74023 0.206025
19939.02930 0.206183
19939.32031 0.206341
19939.61914 0.206499
19939.91016 0.206656
19940.19922 0.206632
19940.49023 0.206522
19940.78906 0.206412
19941.08008 0.206302
19941.36914 0.206193
19941.66016 0.206083
19941.96094 0.205973
19942.25000 0.205991
19942.53906 0.206032
19942.83008 0.206072
19943.13086 0.206113
19943.41992 0.206154
19943.71094 0.206194
19944.00000 0.206234
19944.28906 0.206216
19944.58984 0.206198
19944.88086 0.20618
19945.16992 0.206162
19945.47070 0.206144
19945.75977 0.206126
19946.05078 0.206117
19946.33984 0.206148
19946.64062 0.20618
19946.92969 0.206212
19947.22070 0.206244
19947.51953 0.206276
19947.81055 0.206307
19948.09961 0.206293
19948.39062 0.206188
19948.68945 0.206084
19948.98047 0.20598
19949.26953 0.205876
19949.56055 0.205772
19949.85938 0.205667
19950.15039 0.20565
19950.43945 0.205715
19950.73047 0.205781
19951.02930 0.205846
19951.32031 0.205911
19951.60938 0.205977
19951.91016 0.206042
19952.19922 0.20601
19952.49023 0.205934
19952.77930 0.205856
19953.08008 0.205779
19953.36914 0.205702
19953.66016 0.205625
19953.96094 0.205548
19954.25000 0.205538
19954.53906 0.20554
19954.83008 0.205542
19955.13086 0.205545
19955.41992 0.205547
19955.71094 0.205549
19956.00000 0.205552
19956.30078 0.20555
19956.58984 0.205548
19956.88086 0.205547
19957.17969 0.205545
19957.47070 0.205543
19957.75977 0.205541
19958.05078 0.205526
19958.34961 0.205452
19958.64062 0.205377
19958.92969 0.205304
19959.22070 0.205229
19959.51953 0.205155
19959.81055 0.20508
19960.09961 0.205033
19960.40039 0.205033
19960.68945 0.205033
19960.98047 0.205033
19961.27930 0.205033
19961.57031 0.205034
19961.85938 0.205034
19962.15039 0.205001
19962.44922 0.204939
19962.74023 0.204876
19963.02930 0.204814
19963.33008 0.204752
19963.61914 0.204689
19963.91016 0.204627
19964.21094 0.204683
19964.50000 0.204791
19964.78906 0.204898
19965.08008 0.205005
19965.38086 0.205112
19965.66992 0.205219
19965.96094 0.205326
19966.25977 0.205252
19966.55078 0.205152
19966.83984 0.205051
19967.13086 0.204951
19967.42969 0.20485
19967.72070 0.20475
19968.00977 0.204657
19968.31055 0.204727
19968.59961 0.204797
19968.89062 0.204867
19969.18945 0.204937
19969.48047 0.205007
19969.76953 0.205077
19970.06055 0.205094
19970.35938 0.204923
19970.65039 0.204752
19970.93945 0.204581
19971.24023 0.20441
19971.52930 0.204239
19971.82031 0.204068
19972.11914 0.203967
19972.41016 0.203973
19972.69922 0.203978
19972.99023 0.203984
19973.28906 0.20399
19973.58008 0.203995
19973.86914 0.204001
19974.16992 0.204034
19974.46094 0.204087
19974.75000 0.204141
19975.03906 0.204194
19975.33984 0.204247
19975.63086 0.204301
19975.91992 0.204354
19976.22070 0.20438
19976.50977 0.204396
19976.80078 0.204412
19977.09961 0.204428
19977.39062 0.204445
19977.67969 0.20446
19977.98047 0.204477
19978.26953 0.204406
19978.56055 0.204327
19978.85938 0.204249
19979.15039 0.20417
19979.43945 0.204092
19979.73047 0.204013
19980.02930 0.203951
19980.32031 0.204039
19980.61914 0.204127
19980.91016 0.204215
19981.19922 0.204303
19981.49023 0.204391
19981.78906 0.204479
19982.08008 0.204508
19982.36914 0.20438
19982.66992 0.204252
19982.96094 0.204124
19983.25000 0.203995
19983.55078 0.203868
19983.83984 0.203739
19984.13086 0.203693
19984.42969 0.203746
19984.72070 0.203799
19985.00977 0.203852
19985.31055 0.203905
19985.59961 0.203958
19985.89062 0.204011
19986.18945 0.203991
19986.48047 0.20393
19986.76953 0.203869
19987.06055 0.203808
19987.35938 0.203746
19987.65039 0.203684
19987.94922 0.203623
19988.24023 0.203623
19988.52930 0.203637
19988.82031 0.20365
19989.11914 0.203664
19989.41016 0.203678
19989.71094 0.203692
19990.00000 0.203706
19990.28906 0.203746
19990.58008 0.203786
19990.88086 0.203826
19991.16992 0.203867
19991.46094 0.203907
19991.75977 0.203947
19992.05078 0.203959
19992.33984 0.203838
19992.64062 0.203716
19992.92969 0.203595
19993.22070 0.203474
19993.51953 0.203353
19993.81055 0.203232
19994.10938 0.203183
19994.40039 0.203265
19994.68945 0.203347
19994.98047 0.203429
19995.27930 0.20351
19995.57031 0.203593
19995.86914 0.203675
19996.16016 0.203688
19996.44922 0.203644
19996.75000 0.203598
19997.03906 0.203554
19997.33008 0.203509
19997.61914 0.203464
19997.91992 0.203419
19998.21094 0.203471
19998.50977 0.203559
19998.80078 0.203647
19999.08984 0.203735
19999.39062 0.203824
19999.67969 0.203912
19999.97070 0.204
20000.26953 0.203928
20000.56055 0.203839
20000.84961 0.20375
20001.15039 0.203661
20001.43945 0.203572
20001.73047 0.203483
20002.02930 0.203395
20002.32031 0.203326
20002.60938 0.203256
20002.91016 0.203185
20003.19922 0.203116
20003.49023 0.203045
20003.78906 0.202976
20004.08008 0.202943
20004.36914 0.203007
20004.66992 0.203071
20004.96094 0.203135
20005.25977 0.203199
20005.55078 0.203264
20005.83984 0.203328
20006.14062 0.203378
20006.42969 0.203413
20006.72070 0.203448
20007.01953 0.203483
20007.31055 0.203518
20007.59961 0.203553
20007.90039 0.203588
20008.18945 0.203664
20008.48047 0.203761
20008.77930 0.203857
20009.07031 0.203955
20009.36914 0.204052
20009.66016 0.204149
20009.94922 0.204246
20010.25000 0.204222
20010.53906 0.204174
20010.83008 0.204126
20011.13086 0.204078
20011.41992 0.20403
20011.71094 0.203982
20012.00977 0.203935
20012.30078 0.203943
20012.59961 0.203951
20012.89062 0.203958
20013.17969 0.203966
20013.48047 0.203974
20013.76953 0.203981
20014.06055 0.204002
20014.35938 0.204071
20014.65039 0.20414
20014.93945 0.204209
20015.24023 0.204278
20015.52930 0.204347
20015.82031 0.204416
20016.11914 0.20448
20016.41016 0.204538
20016.71094 0.204596
20017.00000 0.204654
20017.28906 0.204711
20017.58984 0.204769
20017.88086 0.204827
20018.16992 0.20485
20018.47070 0.204849
20018.75977 0.204848
20019.06055 0.204847
20019.34961 0.204846
20019.64062 0.204846
20019.93945 0.204845
20020.23047 0.204798
20020.52930 0.204737
20020.82031 0.204677
20021.10938 0.204617
20021.41016 0.204557
20021.69922 0.204497
20021.99023 0.204436
20022.28906 0.204466
20022.58008 0.204498
20022.88086 0.20453
20023.16992 0.204561
20023.46094 0.204593
20023.75977 0.204625
20024.05078 0.204651
20024.33984 0.204648
20024.64062 0.204645
20024.92969 0.204642
20025.22070 0.204639
20025.51953 0.204636
20025.81055 0.204633
20026.10938 0.204644
20026.40039 0.204679
20026.68945 0.204713
20026.99023 0.204748
20027.27930 0.204783
20027.58008 0.204818
20027.86914 0.204852
20028.16016 0.204843
20028.46094 0.204798
20028.75000 0.204754
20029.03906 0.204709
20029.33984 0.204664
20029.63086 0.20462
20029.92969 0.204575
20030.22070 0.204621
20030.50977 0.204696
20030.81055 0.204772
20031.09961 0.204847
20031.40039 0.204923
20031.68945 0.204998
20031.98047 0.205074
20032.27930 0.205041
20032.57031 0.205002
20032.86914 0.204963
20033.16016 0.204924
20033.44922 0.204884
20033.75000 0.204845
20034.03906 0.20482
20034.33984 0.204879
20034.63086 0.204938
20034.91992 0.204997
20035.22070 0.205056
20035.50977 0.205116
20035.80078 0.205175
20036.09961 0.205218
20036.39062 0.205231
20036.68945 0.205244
20036.98047 0.205257
20037.27930 0.20527
20037.57031 0.205283
20037.85938 0.205296
20038.16016 0.205328
20038.44922 0.205375
20038.74023 0.205423
20039.03906 0.205471
20039.33008 0.205518
20039.63086 0.205566
20039.91992 0.205614
20040.21094 0.205697
20040.50977 0.205793
20040.80078 0.20589
20041.09961 0.205986
20041.39062 0.206082
20041.68945 0.206179
20041.98047 0.206275
20042.26953 0.206196
20042.57031 0.206102
20042.85938 0.20601
20043.16016 0.205916
20043.44922 0.205823
20043.74023 0.20573
20044.03906 0.205666
20044.33008 0.205798
20044.63086 0.20593
20044.91992 0.206062
20045.21094 0.206195
20045.50977 0.206326
20045.80078 0.206459
20046.09961 0.206525
20046.39062 0.206457
20046.68945 0.206389
20046.98047 0.206321
20047.26953 0.206253
20047.57031 0.206184
20047.85938 0.206117
20048.16016 0.206105
20048.44922 0.206144
20048.74023 0.206182
20049.03906 0.206221
20049.33008 0.20626
20049.63086 0.206299
20049.91992 0.206338
20050.21094 0.206368
20050.50977 0.206396
20050.80078 0.206423
20051.09961 0.20645
20051.39062 0.206478
20051.68945 0.206505
20051.98047 0.206532
20052.26953 0.206575
20052.57031 0.20662
20052.85938 0.206664
20053.16016 0.206708
20053.44922 0.206753
20053.75000 0.206798
20054.03906 0.206852
20054.33008 0.206971
20054.63086 0.207091
20054.91992 0.20721
20055.22070 0.207329
20055.50977 0.207449
20055.80078 0.207568
20056.09961 0.20766
20056.39062 0.207699
20056.68945 0.207738
20056.98047 0.207777
20057.27930 0.207815
20057.57031 0.207854
20057.86914 0.207893
20058.16016 0.207925
20058.44922 0.20795
20058.75000 0.207975
20059.03906 0.208001
20059.33984 0.208026
20059.63086 0.208051
20059.92969 0.208076
20060.22070 0.208093
20060.50977 0.208108
20060.81055 0.208122
20061.09961 0.208137
20061.40039 0.208151
20061.68945 0.208166
20061.99023 0.208181
20062.27930 0.208216
20062.57031 0.208252
20062.86914 0.208289
20063.16016 0.208325
20063.46094 0.208361
20063.75000 0.208397
20064.05078 0.20844
20064.33984 0.208518
20064.63086 0.208596
20064.92969 0.208674
20065.22070 0.208752
20065.51953 0.20883
20065.81055 0.208908
20066.10938 0.208944
20066.40039 0.208906
20066.69922 0.208868
20066.99023 0.20883
20067.28906 0.208791
20067.58008 0.208753
20067.86914 0.208715
20068.16992 0.208722
20068.46094 0.208762
20068.75977 0.208802
20069.05078 0.208841
20069.34961 0.208881
20069.64062 0.208921
20069.93945 0.208961
20070.23047 0.209015
20070.51953 0.209074
20070.82031 0.209132
20071.10938 0.209191
20071.41016 0.209249
20071.69922 0.209308
20072.00000 0.209367
20072.28906 0.209402
20072.58984 0.209438
20072.88086 0.209473
20073.16992 0.209509
20073.47070 0.209544
20073.75977 0.20958
20074.06055 0.209605
20074.34961 0.209588
20074.65039 0.209572
20074.93945 0.209555
20075.24023 0.209538
20075.52930 0.209521
20075.82031 0.209504
20076.11914 0.209533
20076.41016 0.209628
20076.71094 0.209724
20077.00000 0.209819
20077.30078 0.209915
20077.58984 0.21001
20077.89062 0.210106
20078.17969 0.210239
20078.48047 0.210395
20078.76953 0.210551
20079.07031 0.210708
20079.35938 0.210863
20079.65039 0.21102
20079.94922 0.211176
20080.24023 0.211183
20080.53906 0.211158
20080.83008 0.211133
20081.13086 0.211109
20081.41992 0.211084
20081.72070 0.211059
20082.00977 0.211033
20082.31055 0.210963
20082.59961 0.210894
20082.90039 0.210825
20083.18945 0.210757
20083.48047 0.210687
20083.77930 0.210618
20084.07031 0.210581
20084.36914 0.210639
20084.66016 0.210698
20084.96094 0.210756
20085.25000 0.210814
20085.55078 0.210872
20085.83984 0.21093
20086.14062 0.211019
20086.42969 0.211143
20086.73047 0.211268
20087.01953 0.211393
20087.32031 0.211517
20087.60938 0.211642
20087.91016 0.211767
20088.19922 0.211841
20088.49023 0.211891
20088.78906 0.211942
20089.08008 0.211993
20089.38086 0.212043
20089.66992 0.212094
20089.97070 0.212145
20090.25977 0.21213
20090.56055 0.212108
20090.84961 0.212085
20091.15039 0.212063
20091.43945 0.21204
20091.74023 0.212018
20092.02930 0.21201
20092.33008 0.212123
20092.61914 0.212235
20092.91992 0.212348
20093.21094 0.212461
20093.50977 0.212574
20093.80078 0.212686
20094.09961 0.21274
20094.39062 0.212671
20094.68945 0.212602
20094.98047 0.212532
20095.27930 0.212463
20095.57031 0.212394
20095.86914 0.212324
20096.16016 0.212303
20096.46094 0.212321
20096.75000 0.21234
20097.03906 0.212359
20097.33984 0.212377
20097.63086 0.212396
20097.92969 0.212415
20098.22070 0.2125
20098.51953 0.212606
20098.81055 0.212713
20099.10938 0.212819
20099.40039 0.212926
20099.69922 0.213032
20099.99023 0.213139
20100.28906 0.213333
20100.58008 0.213529
20100.88086 0.213725
20101.16992 0.213921
20101.47070 0.214118
20101.75977 0.214314
20102.06055 0.214471
20102.34961 0.214468
20102.65039 0.214465
20102.93945 0.214463
20103.24023 0.21446
20103.52930 0.214457
20103.83008 0.214455
20104.11914 0.214519
20104.41992 0.214675
20104.71094 0.214832
20105.00977 0.214988
20105.30078 0.215145
20105.59961 0.215301
20105.89062 0.215458
20106.18945 0.215514
20106.48047 0.215513
20106.77930 0.215512
20107.07031 0.215511
20107.36914 0.21551
20107.66016 0.215508
20107.96094 0.215507
20108.25000 0.215499
20108.55078 0.21549
20108.83984 0.21548
20109.14062 0.21547
20109.42969 0.215461
20109.73047 0.215451
20110.01953 0.215449
20110.32031 0.215534
20110.60938 0.215619
20110.91016 0.215704
20111.19922 0.215788
20111.50000 0.215873
20111.78906 0.215958
20112.08984 0.216013
20112.38086 0.215998
20112.67969 0.215982
20112.97070 0.215967
20113.26953 0.215951
20113.56055 0.215936
20113.85938 0.215921
20114.15039 0.215979
20114.44922 0.216104
20114.74023 0.216229
20115.03906 0.216354
20115.33008 0.216479
20115.63086 0.216605
20115.92969 0.216731
20116.22070 0.216838
20116.51953 0.216939
20116.81055 0.21704
20117.10938 0.217141
20117.40039 0.217242
20117.69922 0.217343
20117.99023 0.217444
20118.28906 0.217448
20118.58008 0.217449
20118.88086 0.21745
20119.16992 0.217451
20119.47070 0.217452
20119.75977 0.217453
20120.06055 0.217457
20120.34961 0.217475
20120.65039 0.217493
20120.93945 0.21751
20121.24023 0.217528
20121.52930 0.217546
20121.83008 0.217563
20122.11914 0.217589
20122.41992 0.217624
20122.71094 0.21766
20123.00977 0.217695
20123.30078 0.21773
20123.59961 0.217766
20123.89062 0.217801
20124.18945 0.217959
20124.49023 0.218183
20124.77930 0.218407
20125.08008 0.218631
20125.36914 0.218855
20125.66992 0.219081
20125.96094 0.219305
20126.25977 0.219338
20126.55078 0.219345
20126.84961 0.219351
20127.14062 0.219357
20127.43945 0.219363
20127.73047 0.219369
20128.02930 0.219364
20128.32031 0.219265
20128.61914 0.219164
20128.91992 0.219064
20129.21094 0.218965
20129.50977 0.218865
20129.80078 0.218765
20130.09961 0.218744
20130.39062 0.218885
20130.68945 0.219025
20130.98047 0.219166
20131.27930 0.219307
20131.57031 0.219448
20131.86914 0.219588
20132.16016 0.219658
20132.46094 0.21967
20132.75977 0.219683
20133.05078 0.219695
20133.34961 0.219708
20133.64062 0.21972
20133.93945 0.219733
20134.23047 0.219866
20134.52930 0.220033
20134.82031 0.220199
20135.11914 0.220366
20135.41016 0.220532
20135.71094 0.220699
20136.00977 0.220864
20136.30078 0.220944
20136.59961 0.221024
20136.89062 0.221104
20137.18945 0.221184
20137.48047 0.221264
20137.77930 0.221344
20138.07031 0.22142
20138.36914 0.221483
20138.66016 0.221546
20138.96094 0.221608
20139.25977 0.221671
20139.55078 0.221734
20139.84961 0.221796
20140.14062 0.221857
20140.43945 0.221916
20140.73047 0.221975
20141.02930 0.222034
20141.32031 0.222093
20141.61914 0.222152
20141.91016 0.222211
20142.21094 0.222218
20142.50977 0.222203
20142.80078 0.222189
20143.09961 0.222175
20143.39062 0.22216
20143.68945 0.222146
20143.98047 0.222131
20144.27930 0.222222
20144.57031 0.222318
20144.86914 0.222414
20145.16992 0.222512
20145.46094 0.222608
20145.75977 0.222704
20146.05078 0.222787
20146.34961 0.222802
20146.64062 0.222818
20146.93945 0.222833
20147.23047 0.222848
20147.52930 0.222864
20147.83008 0.222879
20148.11914 0.222966
20148.41992 0.223156
20148.71094 0.223345
20149.00977 0.223534
20149.30078 0.223724
20149.59961 0.223913
20149.89062 0.224102
20150.18945 0.224166
20150.49023 0.22416
20150.77930 0.224154
20151.08008 0.224149
20151.36914 0.224143
20151.66992 0.224137
20151.96094 0.224132
20152.25977 0.224236
20152.56055 0.224355
20152.84961 0.224474
20153.15039 0.224594
20153.43945 0.224712
20153.74023 0.224831
20154.03906 0.224937
20154.33008 0.224943
20154.63086 0.224949
20154.91992 0.224954
20155.22070 0.22496
20155.50977 0.224966
20155.81055 0.224971
20156.10938 0.225039
20156.40039 0.225217
20156.69922 0.225396
20156.99023 0.225574
20157.28906 0.225752
20157.58008 0.225931
20157.88086 0.226109
20158.17969 0.226116
20158.47070 0.226004
20158.76953 0.225892
20159.06055 0.22578
20159.35938 0.225668
20159.65039 0.225555
20159.94922 0.225444
20160.25000 0.225533
20160.53906 0.225663
20160.83984 0.225795
20161.13086 0.225925
20161.42969 0.226056
20161.72070 0.226187
20162.01953 0.226319
20162.32031 0.226466
20162.60938 0.226613
20162.91016 0.22676
20163.19922 0.226907
20163.50000 0.227055
20163.78906 0.227202
20164.08984 0.227324
20164.39062 0.227389
20164.67969 0.227453
20164.98047 0.227518
20165.27930 0.227582
20165.57031 0.227647
20165.86914 0.227712
20166.16016 0.227745
20166.46094 0.227753
20166.75000 0.22776
20167.05078 0.227768
20167.34961 0.227776
20167.64062 0.227784
20167.93945 0.227792
20168.23047 0.227876
20168.52930 0.227979
20168.83008 0.228084
20169.11914 0.228187
20169.41992 0.228292
20169.71094 0.228395
20170.00977 0.228498
20170.30078 0.228549
20170.59961 0.228601
20170.90039 0.228651
20171.18945 0.228703
20171.49023 0.228754
20171.78906 0.228805
20172.08008 0.22887
20172.38086 0.22897
20172.66992 0.22907
20172.97070 0.229169
20173.26953 0.229269
20173.56055 0.229369
20173.85938 0.229469
20174.15039 0.229546
20174.44922 0.229601
20174.74023 0.229657
20175.03906 0.229712
20175.33984 0.229768
20175.63086 0.229823
20175.92969 0.229879
20176.22070 0.229858
20176.51953 0.229814
20176.82031 0.22977
20177.10938 0.229725
20177.41016 0.229681
20177.71094 0.229637
20178.00000 0.229593
20178.30078 0.229708
20178.58984 0.229823
20178.89062 0.229938
20179.18945 0.230053
20179.48047 0.230169
20179.77930 0.230283
20180.07031 0.230384
20180.36914 0.230441
20180.66992 0.230499
20180.96094 0.230557
20181.25977 0.230614
20181.55078 0.230672
20181.84961 0.230729
20182.15039 0.230824
20182.43945 0.230958
20182.74023 0.231092
20183.03906 0.231226
20183.33008 0.231359
20183.63086 0.231494
20183.91992 0.231628
20184.22070 0.23176
20184.51953 0.231892
20184.81055 0.232024
20185.10938 0.232156
20185.40039 0.232288
20185.69922 0.23242
20186.00000 0.232552
20186.28906 0.232496
20186.58984 0.232437
20186.88086 0.232379
20187.17969 0.23232
20187.48047 0.232261
20187.76953 0.232203
20188.07031 0.232174
20188.36914 0.232243
20188.66016 0.232312
20188.96094 0.232382
20189.25000 0.232451
20189.55078 0.23252
20189.84961 0.232589
20190.14062 0.232712
20190.43945 0.232894
20190.74023 0.233077
20191.02930 0.233258
20191.33008 0.23344
20191.61914 0.233622
20191.91992 0.233803
20192.22070 0.233806
20192.50977 0.233744
20192.81055 0.233681
20193.10938 0.233619
20193.40039 0.233556
20193.69922 0.233493
20193.99023 0.233431
20194.28906 0.233534
20194.58984 0.233641
20194.88086 0.233747
20195.17969 0.233854
20195.48047 0.233961
20195.76953 0.234068
20196.07031 0.234192
20196.36914 0.234378
20196.66016 0.234564
20196.96094 0.234748
20197.25000 0.234934
20197.55078 0.235119
20197.84961 0.235305
20198.14062 0.235354
20198.43945 0.235259
20198.74023 0.235163
20199.02930 0.235068
20199.33008 0.234973
20199.63086 0.234877
20199.91992 0.234782
20200.22070 0.23474
20200.50977 0.234717
20200.81055 0.234695
20201.10938 0.234673
20201.40039 0.23465
20201.69922 0.234628
20202.00000 0.234605
20202.28906 0.234651
20202.58984 0.234698
20202.88086 0.234745
20203.17969 0.234792
20203.48047 0.234839
20203.77930 0.234887
20204.07031 0.234969
20204.36914 0.235167
20204.66016 0.235365
20204.96094 0.235563
20205.25977 0.235761
20205.55078 0.235958
20205.84961 0.236156
20206.15039 0.236229
20206.43945 0.236174
20206.74023 0.236118
20207.03906 0.236063
20207.33008 0.236008
20207.63086 0.235952
20207.92969 0.235897
20208.22070 0.235933
20208.51953 0.236
20208.81055 0.236067
20209.10938 0.236133
20209.41016 0.2362
20209.71094 0.236267
20210.00000 0.236334
20210.30078 0.236441
20210.58984 0.236549
20210.89062 0.236657
20211.18945 0.236765
20211.48047 0.236873
20211.77930 0.23698
20212.08008 0.23708
20212.36914 0.237156
20212.66992 0.237232
20212.97070 0.237308
20213.25977 0.237383
20213.56055 0.237459
20213.85938 0.237535
20214.15039 0.237637
20214.44922 0.237763
20214.75000 0.23789
20215.03906 0.238016
20215.33984 0.238143
20215.63086 0.238268
20215.92969 0.238395
20216.23047 0.238595
20216.52930 0.238816
20216.82031 0.239037
20217.11914 0.239259
20217.41992 0.23948
20217.71094 0.239702
20218.00977 0.239915
20218.30078 0.239889
20218.59961 0.239863
20218.90039 0.239837
20219.19922 0.239811
20219.49023 0.239785
20219.78906 0.239758
20220.08984 0.239713
20220.38086 0.23962
20220.67969 0.239527
20220.97070 0.239434
20221.26953 0.239341
20221.57031 0.239248
20221.86914 0.239155
20222.16016 0.239271
20222.46094 0.239561
20222.75977 0.239851
20223.05078 0.240141
20223.34961 0.240431
20223.65039 0.240721
20223.93945 0.241009
20224.24023 0.240977
20224.53906 0.240866
20224.83008 0.240754
20225.13086 0.240643
20225.42969 0.240531
20225.72070 0.24042
20226.01953 0.240311
20226.32031 0.240244
20226.60938 0.240177
20226.91016 0.240109
20227.21094 0.240042
20227.50000 0.239975
20227.80078 0.239907
20228.09961 0.239924
20228.39062 0.240114
20228.68945 0.240304
20228.99023 0.240494
20229.28906 0.240684
20229.58008 0.240873
20229.88086 0.241063
20230.16992 0.241222
20230.47070 0.241359
20230.76953 0.241496
20231.06055 0.241633
20231.35938 0.24177
20231.66016 0.241907
20231.96094 0.242044
20232.25000 0.242052
20232.55078 0.242036
20232.84961 0.24202
20233.14062 0.242005
20233.43945 0.241989
20233.74023 0.241973
20234.02930 0.241985
20234.33008 0.242218
20234.63086 0.242451
20234.91992 0.242684
20235.22070 0.242917
20235.51953 0.24315
20235.81055 0.243383
20236.10938 0.24351
20236.41016 0.243461
20236.71094 0.243411
20237.00000 0.243362
20237.30078 0.243312
20237.59961 0.243263
20237.89062 0.243213
20238.18945 0.243188
20238.49023 0.243176
20238.78906 0.243164
20239.08008 0.243153
20239.38086 0.243141
20239.67969 0.243129
20239.97070 0.243118
20240.26953 0.243184
20240.57031 0.243257
20240.85938 0.243331
20241.16016 0.243404
20241.46094 0.243478
20241.75000 0.243551
20242.05078 0.243617
20242.34961 0.243646
20242.64062 0.243674
20242.93945 0.243703
20243.24023 0.243731
20243.53906 0.243759
20243.83008 0.243788
20244.13086 0.243829
20244.42969 0.243884
20244.72070 0.24394
20245.01953 0.243996
20245.32031 0.244052
20245.61914 0.244108
20245.91016 0.244164
20246.21094 0.2442
20246.50977 0.244229
20246.80078 0.244257
20247.09961 0.244286
20247.40039 0.244315
20247.69922 0.244343
20247.99023 0.244372
20248.28906 0.244614
20248.58984 0.244861
20248.88086 0.245109
20249.17969 0.245356
20249.48047 0.245604
20249.77930 0.245853
20250.07031 0.246024
20250.36914 0.245955
20250.66992 0.245887
20250.96094 0.245818
20251.25977 0.245749
20251.56055 0.245681
20251.84961 0.245612
20252.15039 0.24561
20252.44922 0.245671
20252.75000 0.245732
20253.03906 0.245794
20253.33984 0.245855
20253.64062 0.245917
20253.92969 0.245978
20254.23047 0.246067
20254.52930 0.246162
20254.83008 0.246257
20255.11914 0.246352
20255.41992 0.246448
20255.72070 0.246543
20256.01953 0.246631
20256.31055 0.246567
20256.60938 0.246503
20256.91016 0.24644
20257.19922 0.246376
20257.50000 0.246312
20257.80078 0.246248
20258.09961 0.246254
20258.39062 0.246408
20258.68945 0.246562
20258.99023 0.246717
20259.28906 0.246872
20259.58008 0.247026
20259.88086 0.24718
20260.17969 0.247305
20260.47070 0.247409
20260.76953 0.247514
20261.07031 0.247618
20261.36914 0.247722
20261.66016 0.247827
20261.96094 0.247931
20262.25977 0.247925
20262.55078 0.247901
20262.84961 0.247878
20263.15039 0.247854
20263.44922 0.247831
20263.74023 0.247807
20264.03906 0.247788
20264.33984 0.247796
20264.63086 0.247805
20264.92969 0.247813
20265.23047 0.247822
20265.52930 0.24783
20265.82031 0.247839
20266.11914 0.247867
20266.41992 0.247924
20266.72070 0.247981
20267.00977 0.248037
20267.31055 0.248094
20267.60938 0.248151
20267.91016 0.248208
20268.19922 0.248254
20268.50000 0.248296
20268.80078 0.248338
20269.09961 0.24838
20269.39062 0.248421
20269.68945 0.248464
20269.99023 0.248505
20270.28906 0.24864
20270.58008 0.248779
20270.88086 0.248919
20271.17969 0.249058
20271.47070 0.249196
20271.76953 0.249336
20272.07031 0.249462
20272.36914 0.249545
20272.66016 0.249627
20272.96094 0.249711
20273.25977 0.249793
20273.56055 0.249876
20273.85938 0.249959
20274.15039 0.249909
20274.44922 0.249732
20274.75000 0.249555
20275.03906 0.249378
20275.33984 0.249201
20275.64062 0.249025
20275.93945 0.248847
20276.23047 0.248966
20276.52930 0.249164
20276.83008 0.249363
20277.13086 0.249561
20277.41992 0.249759
20277.72070 0.249958
20278.01953 0.250152
20278.32031 0.250287
20278.61914 0.250422
20278.91016 0.250556
20279.21094 0.250691
20279.50977 0.250826
20279.80078 0.250961
20280.09961 0.251022
20280.40039 0.250943
20280.69922 0.250864
20280.99023 0.250785
20281.28906 0.250705
20281.58984 0.250626
20281.89062 0.250546
20282.18945 0.25065
20282.48047 0.250864
20282.77930 0.251079
20283.08008 0.251293
20283.38086 0.251507
20283.66992 0.251722
20283.97070 0.251936
20284.26953 0.251925
20284.57031 0.251889
20284.85938 0.251854
20285.16016 0.251818
20285.46094 0.251783
20285.75977 0.251747
20286.05078 0.251727
20286.34961 0.251779
20286.65039 0.251832
20286.94922 0.251884
20287.24023 0.251937
20287.53906 0.251989
20287.83984 0.252041
20288.14062 0.252057
20288.43945 0.25203
20288.73047 0.252003
20289.02930 0.251976
20289.33008 0.251949
20289.63086 0.251921
20289.91992 0.251894
20290.22070 0.251877
20290.51953 0.251864
20290.82031 0.251851
20291.11914 0.251838
20291.41016 0.251825
20291.71094 0.251811
20292.00977 0.251798
20292.31055 0.251756
20292.59961 0.251715
20292.90039 0.251674
20293.19922 0.251632
20293.50000 0.251591
20293.78906 0.25155
20294.08984 0.251567
20294.39062 0.251718
20294.68945 0.251867
20294.99023 0.252018
20295.27930 0.252167
20295.58008 0.252318
20295.88086 0.252467
20296.17969 0.252584
20296.47070 0.252678
20296.76953 0.252772
20297.07031 0.252866
20297.36914 0.25296
20297.66992 0.253054
20297.96094 0.253148
20298.25977 0.253147
20298.56055 0.253133
20298.85938 0.253119
20299.15039 0.253105
20299.44922 0.253091
20299.75000 0.253077
20300.05078 0.253081
20300.34961 0.253174
20300.64062 0.253268
20300.93945 0.253362
20301.24023 0.253456
20301.53906 0.253549
20301.83984 0.253643
20302.13086 0.253741
20302.42969 0.253847
20302.73047 0.253951
20303.02930 0.254056
20303.32031 0.254161
20303.61914 0.254266
20303.91992 0.254371
20304.22070 0.254388
20304.51953 0.254373
20304.81055 0.254357
20305.10938 0.254342
20305.41016 0.254327
20305.71094 0.254312
20306.00977 0.254296
20306.30078 0.254273
20306.59961 0.25425
20306.90039 0.254226
20307.19922 0.254203
20307.50000 0.25418
20307.78906 0.254156
20308.08984 0.254172
20308.39062 0.254276
20308.68945 0.254379
20308.99023 0.254483
20309.27930 0.254586
20309.58008 0.25469
20309.88086 0.254793
20310.17969 0.254834
20310.48047 0.254831
20310.76953 0.254828
20311.07031 0.254825
20311.36914 0.254822
20311.66992 0.254819
20311.96094 0.254816
20312.25977 0.254798
20312.56055 0.254777
20312.85938 0.254757
20313.16016 0.254736
20313.46094 0.254716
20313.75000 0.254695
20314.05078 0.25468
20314.34961 0.254691
20314.65039 0.254702
20314.94922 0.254713
20315.24023 0.254725
20315.53906 0.254736
20315.83984 0.254747
20316.14062 0.254777
20316.43945 0.254828
20316.73047 0.254878
20317.02930 0.254929
20317.33008 0.25498
20317.63086 0.25503
20317.92969 0.255081
20318.22070 0.255173
20318.51953 0.255277
20318.82031 0.255383
20319.11914 0.255487
20319.41992 0.255592
20319.72070 0.255697
20320.00977 0.255796
20320.31055 0.255782
20320.60938 0.255768
20320.91016 0.255754
20321.21094 0.25574
20321.50000 0.255726
20321.80078 0.255711
20322.09961 0.255737
20322.40039 0.25584
20322.69922 0.255943
20323.00000 0.256046
20323.28906 0.256148
20323.58984 0.256252
20323.89062 0.256355
20324.18945 0.256343
20324.49023 0.256264
20324.78906 0.256185
20325.08008 0.256106
20325.38086 0.256028
20325.67969 0.255949
20325.98047 0.25587
20326.27930 0.255872
20326.57031 0.25588
20326.86914 0.255888
20327.16992 0.255896
20327.47070 0.255904
20327.76953 0.255912
20328.06055 0.255948
20328.35938 0.256083
20328.66016 0.256219
20328.96094 0.256354
20329.25977 0.256489
20329.56055 0.256624
20329.85938 0.256759
20330.15039 0.25681
20330.44922 0.256782
20330.75000 0.256753
20331.05078 0.256724
20331.34961 0.256696
20331.64062 0.256667
20331.93945 0.256638
20332.24023 0.256702
20332.53906 0.256787
20332.83984 0.256873
20333.14062 0.256958
20333.43945 0.257044
20333.73047 0.257128
20334.02930 0.257202
20334.33008 0.257175
20334.63086 0.257148
20334.92969 0.257121
20335.22070 0.257094
20335.51953 0.257067
20335.82031 0.257039
20336.11914 0.257046
20336.41992 0.257103
20336.72070 0.257159
20337.01953 0.257216
20337.31055 0.257273
20337.60938 0.257329
20337.91016 0.257386
20338.21094 0.257387
20338.50977 0.257363
20338.80078 0.25734
20339.09961 0.257317
20339.40039 0.257294
20339.69922 0.25727
20340.00000 0.257247
20340.30078 0.257368
20340.59961 0.257491
20340.89062 0.257613
20341.18945 0.257735
20341.49023 0.257857
20341.78906 0.257978
20342.08984 0.258048
20342.39062 0.257989
20342.68945 0.257931
20342.98047 0.257872
20343.27930 0.257814
20343.58008 0.257756
20343.88086 0.257697
20344.17969 0.257729
20344.48047 0.257821
20344.77930 0.257913
20345.07031 0.258005
20345.36914 0.258097
20345.66992 0.25819
20345.97070 0.258282
20346.26953 0.258272
20346.57031 0.258251
20346.86914 0.25823
20347.16016 0.258209
20347.46094 0.258187
20347.75977 0.258166
20348.06055 0.258141
20348.35938 0.2581
20348.66016 0.258059
20348.96094 0.258017
20349.25000 0.257976
20349.55078 0.257935
20349.84961 0.257894
20350.15039 0.257924
20350.44922 0.258025
20350.75000 0.258126
20351.03906 0.258227
20351.33984 0.258329
20351.64062 0.258429
20351.93945 0.258531
20352.24023 0.258536
20352.53906 0.258517
20352.83984 0.258498
20353.13086 0.258479
20353.42969 0.25846
20353.73047 0.258441
20354.02930 0.258425
20354.33008 0.258436
20354.63086 0.258448
20354.92969 0.258459
20355.22070 0.25847
20355.51953 0.258482
20355.82031 0.258493
20356.11914 0.258538
20356.41992 0.258632
20356.72070 0.258726
20357.01953 0.25882
20357.32031 0.258913
20357.61914 0.259007
20357.91016 0.259101
20358.21094 0.259112
20358.50977 0.259088
20358.81055 0.259065
20359.10938 0.259042
20359.41016 0.259019
20359.71094 0.258996
20360.00000 0.258974
20360.30078 0.259039
20360.59961 0.259103
20360.90039 0.259168
20361.19922 0.259233
20361.50000 0.259298
20361.80078 0.259363
20362.09961 0.259395
20362.39062 0.259359
20362.68945 0.259323
20362.99023 0.259286
20363.28906 0.25925
20363.58984 0.259213
20363.89062 0.259177
20364.18945 0.259161
20364.49023 0.259158
20364.78906 0.259154
20365.08008 0.259151
20365.38086 0.259147
20365.67969 0.259144
20365.98047 0.25914
20366.27930 0.259235
20366.58008 0.259336
20366.88086 0.259437
20367.17969 0.259539
20367.47070 0.25964
20367.76953 0.259742
20368.07031 0.259792
20368.36914 0.259683
20368.66992 0.259575
20368.97070 0.259466
20369.26953 0.259357
20369.57031 0.259249
20369.86914 0.25914
20370.16016 0.259165
20370.46094 0.2593
20370.75977 0.259435
20371.06055 0.25957
20371.35938 0.259705
20371.66016 0.25984
20371.96094 0.259975
20372.25977 0.259986
20372.55078 0.259976
20372.84961 0.259966
20373.15039 0.259956
20373.44922 0.259946
20373.75000 0.259936
20374.05078 0.259932
20374.34961 0.259958
20374.65039 0.259985
20374.94922 0.260012
20375.24023 0.260038
20375.53906 0.260065
20375.83984 0.260092
20376.14062 0.260083
20376.43945 0.260035
20376.74023 0.259988
20377.03906 0.25994
20377.33984 0.259892
20377.64062 0.259844
20377.93945 0.259797
20378.23047 0.25974
20378.52930 0.259681
20378.83008 0.259622
20379.13086 0.259564
20379.42969 0.259504
20379.73047 0.259445
20380.02930 0.259394
20380.33008 0.259411
20380.63086 0.259428
20380.92969 0.259445
20381.22070 0.259463
20381.51953 0.25948
20381.82031 0.259497
20382.11914 0.259566
20382.41992 0.259712
20382.72070 0.259857
20383.01953 0.260002
20383.32031 0.260147
20383.61914 0.260292
20383.91992 0.260436
20384.21094 0.26044
20384.50977 0.260389
20384.81055 0.260337
20385.10938 0.260285
20385.41016 0.260234
20385.71094 0.260182
20386.00977 0.260136
20386.31055 0.26025
20386.60938 0.260364
20386.91016 0.260479
20387.21094 0.260593
20387.50977 0.260707
20387.80078 0.260822
20388.09961 0.260866
20388.40039 0.260777
20388.69922 0.260688
20389.00000 0.2606
20389.30078 0.260511
20389.59961 0.260422
20389.90039 0.260334
20390.19922 0.260292
20390.50000 0.260273
20390.80078 0.260254
20391.09961 0.260235
20391.39062 0.260217
20391.68945 0.260198
20391.99023 0.26018
20392.28906 0.260284
20392.58984 0.260391
20392.89062 0.260497
20393.18945 0.260604
20393.49023 0.260711
20393.78906 0.260819
20394.08984 0.260894
20394.39062 0.260892
20394.68945 0.26089
20394.98047 0.260888
20395.28906 0.260886
20395.58008 0.260884
20395.88086 0.260882
20396.17969 0.260938
20396.48047 0.261032
20396.77930 0.261125
20397.08008 0.261219
20397.38086 0.261312
20397.67969 0.261406
20397.98047 0.2615
20398.27930 0.261492
20398.58008 0.261476
20398.86914 0.26146
20399.17969 0.261444
20399.47070 0.261428
20399.76953 0.261412
20400.07031 0.261378
20400.36914 0.261285
20400.66992 0.261193
20400.97070 0.261101
20401.26953 0.261008
20401.57031 0.260915
20401.86914 0.260823
20402.16992 0.260739
20402.47070 0.260662
20402.76953 0.260585
20403.07031 0.260508
20403.36914 0.260431
20403.66992 0.260353
20403.96094 0.260276
20404.25977 0.260419
20404.56055 0.260591
20404.85938 0.260765
20405.16016 0.260938
20405.46094 0.26111
20405.75977 0.261284
20406.06055 0.261446
20406.35938 0.261569
20406.66016 0.261692
20406.96094 0.261815
20407.25977 0.261938
20407.56055 0.262061
20407.85938 0.262184
20408.16016 0.262145
20408.46094 0.261958
20408.75977 0.261769
20409.05078 0.261582
20409.34961 0.261395
20409.65039 0.261206
20409.94922 0.261019
20410.25000 0.261065
20410.55078 0.261154
20410.84961 0.261243
20411.15039 0.261332
20411.44922 0.261422
20411.75000 0.261511
20412.05078 0.261597
20412.34961 0.261668
20412.65039 0.261739
20412.94922 0.261809
20413.25000 0.26188
20413.55078 0.26195
20413.84961 0.262021
20414.15039 0.262004
20414.44922 0.261894
20414.74023 0.261784
20415.03906 0.261674
20415.33984 0.261564
20415.64062 0.261455
20415.93945 0.261344
20416.24023 0.261329
20416.53906 0.261335
20416.83984 0.261341
20417.14062 0.261348
20417.43945 0.261354
20417.74023 0.26136
20418.03906 0.261394
20418.33984 0.261613
20418.64062 0.261831
20418.93945 0.262051
20419.24023 0.262269
20419.53906 0.262487
20419.83984 0.262707
20420.14062 0.262789
20420.43945 0.262711
20420.74023 0.262632
20421.03906 0.262555
20421.33984 0.262476
20421.63086 0.262398
20421.93945 0.262319
20422.23047 0.262209
20422.52930 0.26209
20422.83008 0.261971
20423.13086 0.261852
20423.42969 0.261732
20423.73047 0.261614
20424.02930 0.261518
20424.33008 0.261617
20424.63086 0.261715
20424.92969 0.261814
20425.23047 0.261913
20425.52930 0.262012
20425.83008 0.262111
20426.13086 0.262131
20426.42969 0.262051
20426.73047 0.26197
20427.02930 0.261889
20427.33008 0.261808
20427.63086 0.261728
20427.92969 0.261647
20428.23047 0.261673
20428.52930 0.261732
20428.83008 0.261792
20429.13086 0.261851
20429.42969 0.261911
20429.73047 0.26197
20430.02930 0.262028
20430.33008 0.262071
20430.63086 0.262113
20430.92969 0.262155
20431.23047 0.262198
20431.52930 0.26224
20431.82031 0.262283
20432.13086 0.262296
20432.41992 0.26227
20432.72070 0.262243
20433.01953 0.262216
20433.32031 0.262189
20433.61914 0.262162
20433.91992 0.262135
20434.22070 0.262092
20434.51953 0.262043
20434.82031 0.261994
20435.11914 0.261945
20435.41992 0.261896
20435.72070 0.261848
20436.01953 0.26181
20436.32031 0.261909
20436.61914 0.262008
20436.91992 0.262106
20437.22070 0.262205
20437.51953 0.262304
20437.82031 0.262403
20438.11914 0.26247
20438.41992 0.262491
20438.72070 0.262511
20439.01953 0.262532
20439.32031 0.262553
20439.61914 0.262574
20439.91992 0.262594
20440.22070 0.262678
20440.51953 0.262784
20440.82031 0.26289
20441.11914 0.262997
20441.41992 0.263103
20441.72070 0.263209
20442.01953 0.263315
20442.32031 0.263416
20442.61914 0.263518
20442.91992 0.263618
20443.22070 0.26372
20443.51953 0.263821
20443.82031 0.263922
20444.11914 0.263919
20444.41992 0.263756
20444.72070 0.263594
20445.01953 0.263432
20445.32031 0.26327
20445.61914 0.263108
20445.91992 0.262946
20446.22070 0.262998
20446.51953 0.263126
20446.82031 0.263256
20447.11914 0.263385
20447.41992 0.263514
20447.72070 0.263644
20448.01953 0.263755
20448.32031 0.263616
20448.61914 0.263477
20448.91992 0.263338
20449.22070 0.263199
20449.51953 0.26306
20449.82031 0.262921
20450.11914 0.262828
20450.41992 0.262804
20450.72070 0.262781
20451.01953 0.262757
20451.32031 0.262734
20451.61914 0.26271
20451.91992 0.262687
20452.22070 0.262745
20452.51953 0.262832
20452.82031 0.262919
20453.11914 0.263007
20453.41992 0.263094
20453.72070 0.263182
20454.01953 0.263264
20454.32031 0.263271
20454.61914 0.263278
20454.91992 0.263285
20455.22070 0.263292
20455.51953 0.263299
20455.82031 0.263306
20456.11914 0.263315
20456.41992 0.263327
20456.72070 0.263339
20457.01953 0.263351
20457.32031 0.263363
20457.61914 0.263375
20457.91992 0.263387
20458.22070 0.263509
20458.51953 0.263669
20458.82031 0.263829
20459.11914 0.263988
20459.41992 0.264149
20459.72070 0.264309
20460.01953 0.264454
20460.32031 0.264428
20460.63086 0.264402
20460.91992 0.264377
20461.22070 0.264352
20461.52930 0.264326
20461.83008 0.2643
20462.13086 0.264247
20462.42969 0.264153
20462.73047 0.264059
20463.02930 0.263966
20463.33008 0.263872
20463.63086 0.263778
20463.92969 0.263684
20464.23047 0.263698
20464.52930 0.263746
20464.83008 0.263793
20465.13086 0.263841
20465.42969 0.263888
20465.73047 0.263936
20466.02930 0.263979
20466.33008 0.263981
20466.63086 0.263983
20466.92969 0.263985
20467.23047 0.263987
20467.52930 0.263989
20467.83008 0.263991
20468.13086 0.263928
20468.42969 0.263783
20468.73047 0.263637
20469.02930 0.263492
20469.33008 0.263346
20469.63086 0.263201
20469.92969 0.263055
20470.23047 0.263112
20470.52930 0.263229
20470.83008 0.263345
20471.13086 0.263462
20471.43945 0.263578
20471.73047 0.263694
20472.03906 0.263785
20472.33984 0.26368
20472.64062 0.263575
20472.93945 0.26347
20473.24023 0.263365
20473.53906 0.26326
20473.83984 0.263155
20474.14062 0.263104
20474.43945 0.263118
20474.74023 0.263132
20475.03906 0.263145
20475.33984 0.263159
20475.64062 0.263172
20475.93945 0.263186
20476.24023 0.263286
20476.53906 0.263408
20476.83984 0.263529
20477.14062 0.263651
20477.43945 0.263773
20477.74023 0.263894
20478.03906 0.263995
20478.33984 0.263974
20478.64062 0.263952
20478.94922 0.263931
20479.25000 0.26391
20479.55078 0.263889
20479.84961 0.263867
20480.15039 0.264008
20480.44922 0.264319
20480.75000 0.264631
20481.05078 0.264943
20481.34961 0.265254
20481.65039 0.265566
20481.94922 0.265875
20482.25000 0.265781
20482.55078 0.265604
20482.84961 0.265426
20483.15039 0.265249
20483.44922 0.265072
20483.75000 0.264895
20484.05078 0.264728
20484.34961 0.26461
20484.65039 0.264492
20484.96094 0.264374
20485.25977 0.264255
20485.56055 0.264137
20485.85938 0.264019
20486.16016 0.263976
20486.46094 0.264002
20486.75977 0.264029
20487.06055 0.264055
20487.35938 0.264081
20487.66016 0.264107
20487.96094 0.264133
20488.25977 0.264236
20488.56055 0.264349
20488.85938 0.264463
20489.16016 0.264576
20489.46094 0.26469
20489.76953 0.264804
20490.07031 0.264863
20490.36914 0.264731
20490.66992 0.2646
20490.97070 0.264468
20491.26953 0.264335
20491.57031 0.264203
20491.86914 0.264071
20492.16992 0.264099
20492.47070 0.264249
20492.76953 0.2644
20493.07031 0.264551
20493.36914 0.264701
20493.66992 0.264852
20493.97070 0.265003
20494.27930 0.264904
20494.58008 0.264782
20494.88086 0.26466
20495.17969 0.264538
20495.48047 0.264416
20495.77930 0.264294
20496.08008 0.264237
20496.38086 0.264361
20496.67969 0.264484
20496.98047 0.264608
20497.27930 0.264732
20497.58008 0.264856
20497.88086 0.26498
20498.17969 0.265046
20498.48047 0.265076
20498.78906 0.265105
20499.08984 0.265134
20499.39062 0.265163
20499.68945 0.265193
20499.99023 0.265222
20500.28906 0.265255
20500.58984 0.265288
20500.89062 0.265321
20501.18945 0.265354
20501.49023 0.265387
20501.78906 0.26542
20502.08984 0.265429
20502.39062 0.265384
20502.69922 0.265339
20503.00000 0.265294
20503.30078 0.265249
20503.59961 0.265204
20503.90039 0.265159
20504.19922 0.265184
20504.50000 0.265243
20504.80078 0.265303
20505.09961 0.265362
20505.40039 0.265422
20505.71094 0.265481
20506.00977 0.26554
20506.31055 0.265569
20506.60938 0.265598
20506.91016 0.265627
20507.21094 0.265656
20507.50977 0.265685
20507.81055 0.265714
20508.10938 0.265764
20508.41016 0.265851
20508.71094 0.265937
20509.00977 0.266023
20509.31055 0.26611
20509.61914 0.266197
20509.91992 0.266283
20510.22070 0.266233
20510.51953 0.266132
20510.82031 0.26603
20511.11914 0.265928
20511.41992 0.265827
20511.72070 0.265725
20512.01953 0.265635
20512.32031 0.265686
20512.61914 0.265737
20512.92969 0.265788
20513.23047 0.265839
20513.52930 0.265889
20513.83008 0.26594
20514.13086 0.265929
20514.42969 0.265836
20514.73047 0.265744
20515.02930 0.265651
20515.33008 0.265558
20515.63086 0.265466
20515.93945 0.265373
20516.24023 0.265288
20516.53906 0.265205
20516.83984 0.265123
20517.14062 0.26504
20517.43945 0.264957
20517.74023 0.264874
20518.03906 0.264817
20518.34961 0.264913
20518.65039 0.265008
20518.94922 0.265104
20519.25000 0.265199
20519.55078 0.265295
20519.84961 0.26539
20520.15039 0.265485
20520.44922 0.26558
20520.75000 0.265674
20521.05078 0.265769
20521.35938 0.265863
20521.66016 0.265958
20521.96094 0.266052
20522.25977 0.266145
20522.56055 0.266236
20522.85938 0.266328
20523.16016 0.26642
20523.46094 0.266512
20523.75977 0.266603
20524.07031 0.266694
20524.36914 0.266778
20524.66992 0.266862
20524.97070 0.266946
20525.26953 0.26703
20525.57031 0.267115
20525.86914 0.267199
20526.16992 0.267182
20526.47070 0.267089
20526.77930 0.266997
20527.08008 0.266905
20527.38086 0.266813
20527.67969 0.266721
20527.98047 0.266628
20528.27930 0.266652
20528.58008 0.266684
20528.88086 0.266715
20529.18945 0.266746
20529.49023 0.266778
20529.78906 0.266809
20530.08984 0.266846
20530.39062 0.266896
20530.68945 0.266946
20530.99023 0.266996
20531.28906 0.267047
20531.59961 0.267097
20531.90039 0.267147
20532.19922 0.267168
20532.50000 0.267173
20532.80078 0.267178
20533.09961 0.267183
20533.40039 0.267188
20533.71094 0.267193
20534.00977 0.267197
20534.31055 0.267115
20534.60938 0.267034
20534.91016 0.266952
20535.21094 0.266871
20535.50977 0.266789
20535.81055 0.266708
20536.11914 0.266636
20536.41992 0.266583
20536.72070 0.266529
20537.01953 0.266476
20537.32031 0.266422
20537.61914 0.266369
20537.91992 0.266315
20538.22070 0.266363
20538.52930 0.266445
20538.83008 0.266527
20539.13086 0.26661
20539.42969 0.266692
20539.73047 0.266775
20540.02930 0.266856
20540.33008 0.266932
20540.63086 0.267008
20540.93945 0.267083
20541.24023 0.267159
20541.53906 0.267234
20541.83984 0.267309
20542.14062 0.267341
20542.43945 0.267323
20542.74023 0.267305
20543.03906 0.267287
20543.34961 0.267269
20543.65039 0.267251
20543.94922 0.267233
20544.25000 0.267346
20544.55078 0.267485
20544.84961 0.267624
20545.16016 0.267764
20545.46094 0.267902
20545.75977 0.268041
20546.06055 0.268093
20546.35938 0.267792
20546.66016 0.26749
20546.96094 0.26719
20547.26953 0.266889
20547.57031 0.266587
20547.86914 0.266286
20548.16992 0.266266
20548.47070 0.266465
20548.76953 0.266662
20549.07031 0.266859
20549.38086 0.267057
20549.67969 0.267254
20549.98047 0.267452
20550.27930 0.267484
20550.58008 0.267503
20550.88086 0.267523
20551.18945 0.267543
20551.49023 0.267562
20551.78906 0.267582
20552.08984 0.267633
20552.39062 0.267759
20552.68945 0.267885
20552.99023 0.268011
20553.30078 0.268138
20553.59961 0.268263
20553.90039 0.26839
20554.19922 0.268429
20554.50000 0.268425
20554.80078 0.26842
20555.10938 0.268416
20555.41016 0.268412
20555.71094 0.268407
20556.00977 0.268402
20556.31055 0.268374
20556.60938 0.268347
20556.91992 0.268319
20557.22070 0.268291
20557.51953 0.268263
20557.82031 0.268236
20558.11914 0.268195
20558.41992 0.268132
20558.72070 0.26807
20559.02930 0.268008
20559.33008 0.267946
20559.63086 0.267883
20559.92969 0.267821
20560.23047 0.267815
20560.53906 0.267825
20560.83984 0.267835
20561.14062 0.267846
20561.43945 0.267856
20561.74023 0.267866
20562.03906 0.267914
20562.34961 0.268194
20562.65039 0.268472
20562.94922 0.268751
20563.25000 0.269029
20563.55078 0.269309
20563.84961 0.269587
20564.16016 0.269645
20564.46094 0.269496
20564.75977 0.269347
20565.06055 0.269198
20565.35938 0.269049
20565.66016 0.2689
20565.97070 0.268751
20566.26953 0.268754
20566.57031 0.268776
20566.86914 0.268798
20567.16992 0.26882
20567.47070 0.268841
20567.77930 0.268863
20568.08008 0.268952
20568.38086 0.269235
20568.67969 0.269515
20568.98047 0.269798
20569.28906 0.270078
20569.58984 0.270361
20569.89062 0.270641
20570.18945 0.270699
20570.49023 0.270627
20570.78906 0.270555
20571.09961 0.270483
20571.40039 0.27041
20571.69922 0.270338
20572.00000 0.270265
20572.30078 0.270087
20572.60938 0.269911
20572.91016 0.269734
20573.21094 0.269557
20573.50977 0.269379
20573.81055 0.269203
20574.11914 0.269134
20574.41992 0.269243
20574.72070 0.269353
20575.01953 0.269462
20575.32031 0.269571
20575.63086 0.269681
20575.92969 0.26979
20576.23047 0.269859
20576.52930 0.269916
20576.83008 0.269973
20577.13086 0.27003
20577.43945 0.270087
20577.74023 0.270144
20578.03906 0.270201
20578.33984 0.270256
20578.64062 0.27031
20578.94922 0.270365
20579.25000 0.270421
20579.55078 0.270475
20579.84961 0.27053
20580.15039 0.270436
20580.46094 0.270196
20580.75977 0.269956
20581.06055 0.269717
20581.35938 0.269477
20581.66016 0.269238
20581.96094 0.268998
20582.26953 0.269145
20582.57031 0.269342
20582.86914 0.269541
20583.16992 0.269739
20583.47070 0.269936
20583.77930 0.270135
20584.08008 0.270275
20584.38086 0.270251
20584.67969 0.270228
20584.98047 0.270204
20585.28906 0.270181
20585.58984 0.270157
20585.89062 0.270134
20586.18945 0.270111
20586.50000 0.270088
20586.80078 0.270065
20587.09961 0.270042
20587.40039 0.270018
20587.69922 0.269995
20588.00977 0.269975
20588.31055 0.270083
20588.60938 0.270192
20588.91016 0.270301
20589.21094 0.27041
20589.51953 0.270518
20589.82031 0.270627
20590.11914 0.270746
20590.41992 0.270879
20590.72070 0.271013
20591.02930 0.271147
20591.33008 0.27128
20591.63086 0.271414
20591.92969 0.271548
20592.23047 0.271503
20592.53906 0.271408
20592.83984 0.271312
20593.14062 0.271216
20593.43945 0.27112
20593.75000 0.271025
20594.05078 0.270959
20594.34961 0.271048
20594.65039 0.271138
20594.96094 0.271228
20595.25977 0.271317
20595.56055 0.271407
20595.85938 0.271497
20596.16016 0.271585
20596.46094 0.271672
20596.76953 0.271759
20597.07031 0.271846
20597.36914 0.271933
20597.66992 0.27202
20597.98047 0.272108
20598.27930 0.272011
20598.58008 0.271899
20598.88086 0.271787
20599.18945 0.271675
20599.49023 0.271563
20599.78906 0.271451
20600.08984 0.271416
20600.39062 0.271559
20600.69922 0.271702
20601.00000 0.271845
20601.30078 0.271988
20601.59961 0.272131
20601.91016 0.272274
20602.21094 0.272283
20602.50977 0.27223
20602.81055 0.272178
20603.11914 0.272126
20603.41992 0.272073
20603.72070 0.272021
20604.01953 0.271971
20604.32031 0.27195
20604.63086 0.271929
20604.92969 0.271908
20605.23047 0.271887
20605.52930 0.271865
20605.83984 0.271844
20606.14062 0.271811
20606.43945 0.271765
20606.74023 0.271718
20607.03906 0.271672
20607.34961 0.271625
20607.65039 0.271578
20607.94922 0.271531
20608.25000 0.271528
20608.56055 0.271534
20608.85938 0.271539
20609.16016 0.271545
20609.46094 0.27155
20609.76953 0.271556
20610.07031 0.271572
20610.36914 0.271623
20610.66992 0.271675
20610.98047 0.271727
20611.27930 0.271778
20611.58008 0.271829
20611.88086 0.271881
20612.18945 0.272048
20612.49023 0.272289
20612.78906 0.27253
20613.08984 0.272771
20613.39062 0.27301
20613.69922 0.273251
20614.00000 0.273492
20614.30078 0.273371
20614.60938 0.273249
20614.91016 0.273128
20615.21094 0.273007
20615.50977 0.272886
20615.81055 0.272765
20616.11914 0.272723
20616.41992 0.272808
20616.72070 0.272892
20617.02930 0.272976
20617.33008 0.273061
20617.63086 0.273145
20617.92969 0.273229
20618.23047 0.273237
20618.53906 0.273224
20618.83984 0.27321
20619.14062 0.273196
20619.44922 0.273183
20619.75000 0.273169
20620.05078 0.273153
20620.34961 0.273128
20620.66016 0.273102
20620.96094 0.273076
20621.25977 0.273051
20621.56055 0.273025
20621.86914 0.272999
20622.16992 0.272998
20622.47070 0.273018
20622.76953 0.273037
20623.08008 0.273056
20623.38086 0.273076
20623.67969 0.273095
20623.98047 0.273114
20624.28906 0.273171
20624.58984 0.273229
20624.89062 0.273288
20625.18945 0.273347
20625.50000 0.273406
20625.80078 0.273464
20626.09961 0.273484
20626.40039 0.273427
20626.71094 0.273369
20627.00977 0.273312
20627.31055 0.273254
20627.61914 0.273197
20627.91992 0.273139
20628.22070 0.273075
20628.51953 0.273009
20628.83008 0.272943
20629.13086 0.272877
20629.42969 0.272811
20629.73047 0.272745
20630.03906 0.272692
20630.33984 0.272734
20630.64062 0.272776
20630.94922 0.272818
20631.25000 0.27286
20631.55078 0.272903
20631.84961 0.272945
20632.16016 0.273058
20632.46094 0.273236
20632.75977 0.273415
20633.06055 0.273594
20633.36914 0.273773
20633.66992 0.273952
20633.97070 0.27413
20634.27930 0.27394
20634.58008 0.273713
20634.88086 0.273487
20635.17969 0.27326
20635.49023 0.273033
20635.78906 0.272806
20636.08984 0.272697
20636.39062 0.272856
20636.69922 0.273015
20637.00000 0.273174
20637.30078 0.273333
20637.60938 0.273492
20637.91016 0.273652
20638.21094 0.273695
20638.50977 0.273687
20638.82031 0.27368
20639.11914 0.273672
20639.41992 0.273665
20639.72070 0.273657
20640.02930 0.273651
20640.33008 0.27366
20640.63086 0.273669
20640.93945 0.273678
20641.24023 0.273687
20641.53906 0.273696
20641.84961 0.273705
20642.15039 0.273683
20642.44922 0.273629
20642.75000 0.273575
20643.06055 0.273521
20643.35938 0.273467
20643.66016 0.273413
20643.96094 0.273359
20644.26953 0.273419
20644.57031 0.273494
20644.86914 0.273569
20645.17969 0.273645
20645.48047 0.27372
20645.77930 0.273795
20646.08984 0.273841
20646.39062 0.273812
20646.68945 0.273784
20646.99023 0.273755
20647.30078 0.273726
20647.59961 0.273697
20647.90039 0.273668
20648.21094 0.273686
20648.50977 0.273726
20648.81055 0.273766
20649.11914 0.273805
20649.41992 0.273845
20649.72070 0.273885
20650.01953 0.273911
20650.33008 0.273772
20650.63086 0.273634
20650.92969 0.273495
20651.24023 0.273357
20651.53906 0.273218
20651.83984 0.27308
20652.14062 0.27306
20652.44922 0.27317
20652.75000 0.27328
20653.05078 0.27339
20653.35938 0.2735
20653.66016 0.273609
20653.96094 0.273719
20654.26953 0.273666
20654.57031 0.273591
20654.86914 0.273515
20655.17969 0.273439
20655.48047 0.273363
20655.77930 0.273288
20656.08008 0.273242
20656.39062 0.273275
20656.68945 0.273308
20656.99023 0.27334
20657.30078 0.273373
20657.59961 0.273406
20657.90039 0.273439
20658.21094 0.273335
20658.50977 0.273166
20658.81055 0.272998
20659.11914 0.272829
20659.41992 0.272661
20659.72070 0.272493
20660.02930 0.27234
20660.33008 0.272371
20660.63086 0.272403
20660.92969 0.272434
20661.24023 0.272465
20661.53906 0.272497
20661.83984 0.272529
20662.15039 0.272586
20662.44922 0.272671
20662.75000 0.272757
20663.06055 0.272842
20663.35938 0.272927
20663.66016 0.273012
20663.96094 0.273097
20664.26953 0.273021
20664.57031 0.272925
20664.86914 0.272828
20665.17969 0.272731
20665.48047 0.272634
20665.78906 0.272537
20666.08984 0.272476
20666.39062 0.272502
20666.69922 0.272528
20667.00000 0.272554
20667.30078 0.272581
20667.59961 0.272607
20667.91016 0.272633
20668.21094 0.272577
20668.50977 0.272485
20668.82031 0.272393
20669.11914 0.2723
20669.41992 0.272208
20669.73047 0.272116
20670.02930 0.272029
20670.33008 0.271994
20670.64062 0.27196
20670.93945 0.271925
20671.24023 0.271891
20671.55078 0.271856
20671.84961 0.271822
20672.15039 0.271732
20672.46094 0.27159
20672.75977 0.271447
20673.06055 0.271304
20673.36914 0.271161
20673.66992 0.271018
20673.97070 0.270875
20674.27930 0.270886
20674.58008 0.270912
20674.88086 0.270937
20675.18945 0.270963
20675.49023 0.270989
20675.78906 0.271015
20676.09961 0.271021
20676.40039 0.270985
20676.69922 0.270949
20677.00977 0.270913
20677.31055 0.270877
20677.60938 0.270841
20677.91992 0.270805
20678.22070 0.270906
20678.51953 0.271058
20678.83008 0.271211
20679.13086 0.271363
20679.42969 0.271514
20679.74023 0.271668
20680.03906 0.271769
20680.33984 0.271543
20680.65039 0.271316
20680.94922 0.271091
20681.25000 0.270866
20681.56055 0.270639
20681.85938 0.270413
20682.16016 0.270236
20682.47070 0.2701
20682.76953 0.269965
20683.08008 0.269829
20683.38086 0.269693
20683.67969 0.269558
20683.99023 0.269421
20684.28906 0.269519
20684.58984 0.269627
20684.90039 0.269736
20685.19922 0.269845
20685.50000 0.269954
20685.81055 0.270062
20686.10938 0.270064
20686.41016 0.269877
20686.72070 0.269691
20687.01953 0.269503
20687.32031 0.269317
20687.63086 0.269131
20687.92969 0.268944
20688.23047 0.2689
20688.53906 0.268898
20688.83984 0.268895
20689.15039 0.268893
20689.44922 0.268891
20689.75000 0.268889
20690.06055 0.268874
20690.35938 0.268803
20690.66016 0.268732
20690.97070 0.268662
20691.26953 0.268591
20691.57031 0.26852
20691.88086 0.26845
20692.17969 0.268421
20692.48047 0.268421
20692.78906 0.26842
20693.08984 0.26842
20693.40039 0.268419
20693.69922 0.268419
20694.00000 0.268417
20694.31055 0.268338
20694.60938 0.268258
20694.91016 0.268178
20695.22070 0.268099
20695.51953 0.268018
20695.82031 0.267939
20696.13086 0.267807
20696.42969 0.267604
20696.74023 0.2674
20697.03906 0.267198
20697.33984 0.266994
20697.65039 0.266792
20697.94922 0.266588
20698.25000 0.266444
20698.56055 0.266309
20698.85938 0.266176
20699.16992 0.266041
20699.47070 0.265908
20699.76953 0.265773
20700.08008 0.265693
20700.38086 0.265772
20700.67969 0.26585
20700.99023 0.265929
20701.28906 0.266008
20701.59961 0.266087
20701.90039 0.266165
20702.19922 0.266076
20702.50977 0.265905
20702.81055 0.265732
20703.10938 0.265561
20703.41992 0.265389
20703.72070 0.265217
20704.02930 0.265049
20704.33008 0.264935
20704.63086 0.26482
20704.93945 0.264705
20705.24023 0.26459
20705.53906 0.264475
20705.84961 0.26436
20706.15039 0.264315
20706.46094 0.264339
20706.75977 0.264363
20707.06055 0.264388
20707.36914 0.264412
20707.66992 0.264437
20707.97070 0.264461
20708.27930 0.2643
20708.58008 0.264123
20708.89062 0.263944
20709.18945 0.263767
20709.49023 0.263589
20709.80078 0.263412
20710.09961 0.263253
20710.41016 0.263133
20710.71094 0.263014
20711.00977 0.262894
20711.32031 0.262775
20711.61914 0.262655
20711.92969 0.262535
20712.23047 0.262307
20712.52930 0.26204
20712.83984 0.261776
20713.14062 0.261509
20713.43945 0.261245
20713.75000 0.260978
20714.05078 0.260751
20714.35938 0.260711
20714.66016 0.260672
20714.96094 0.260632
20715.26953 0.260592
20715.57031 0.260552
20715.88086 0.260513
20716.17969 0.260456
20716.48047 0.260387
20716.78906 0.260319
20717.08984 0.26025
20717.40039 0.260182
20717.69922 0.260113
20718.00000 0.260041
20718.31055 0.259713
20718.60938 0.259383
20718.91992 0.259052
20719.22070 0.258724
20719.51953 0.258393
20719.83008 0.258062
20720.13086 0.257793
20720.43945 0.2576
20720.74023 0.257407
20721.03906 0.257215
20721.34961 0.257022
20721.65039 0.256829
20721.96094 0.256637
20722.25977 0.25654
20722.56055 0.256459
20722.86914 0.256379
20723.16992 0.256298
20723.48047 0.256217
20723.77930 0.256137
20724.08008 0.25605
20724.39062 0.255948
20724.68945 0.255846
20725.00000 0.255744
20725.30078 0.255642
20725.59961 0.25554
20725.91016 0.255438
20726.21094 0.255312
20726.51953 0.255176
20726.82031 0.255041
20727.13086 0.254906
20727.42969 0.25477
20727.73047 0.254635
20728.03906 0.254474
20728.33984 0.254137
20728.65039 0.2538
20728.94922 0.253466
20729.25000 0.253129
20729.56055 0.252792
20729.85938 0.252457
20730.16992 0.252322
20730.47070 0.252357
20730.77930 0.252392
20731.08008 0.252427
20731.38086 0.252462
20731.68945 0.252497
20731.99023 0.252532
20732.28906 0.252416
20732.59961 0.252296
20732.90039 0.252175
20733.21094 0.252055
20733.50977 0.251935
20733.82031 0.251814
20734.11914 0.251588
20734.42969 0.2512
20734.73047 0.250815
20735.02930 0.250428
20735.33984 0.25004
20735.64062 0.249652
20735.94922 0.249267
20736.25000 0.249051
20736.55078 0.248871
20736.85938 0.248691
20737.16016 0.248512
20737.47070 0.248333
20737.76953 0.248153
20738.08008 0.247992
20738.38086 0.247885
20738.67969 0.247779
20738.99023 0.247673
20739.28906 0.247566
20739.59961 0.247459
20739.90039 0.247353
20740.21094 0.247129
20740.50977 0.246847
20740.81055 0.246566
20741.11914 0.246284
20741.41992 0.246003
20741.73047 0.245721
20742.02930 0.24545
20742.33984 0.245248
20742.64062 0.245047
20742.94922 0.244846
20743.25000 0.244644
20743.55078 0.244444
20743.85938 0.244243
20744.16016 0.244107
20744.47070 0.24403
20744.76953 0.243952
20745.08008 0.243875
20745.38086 0.243798
20745.67969 0.24372
20745.99023 0.243643
20746.28906 0.243288
20746.59961 0.242922
20746.90039 0.242556
20747.21094 0.24219
20747.50977 0.241827
20747.81055 0.24146
20748.11914 0.241176
20748.41992 0.241018
20748.73047 0.24086
20749.02930 0.240702
20749.33984 0.240545
20749.64062 0.240387
20749.94922 0.24023
20750.25000 0.239987
20750.55078 0.239725
20750.85938 0.239463
20751.16016 0.239201
20751.47070 0.238939
20751.76953 0.238677
20752.08008 0.238399
20752.38086 0.238077
20752.68945 0.237753
20752.99023 0.237429
20753.28906 0.237105
20753.59961 0.236781
20753.90039 0.236456
20754.21094 0.236213
20754.50977 0.236008
20754.82031 0.235802
20755.11914 0.235596
20755.42969 0.23539
20755.73047 0.235185
20756.03906 0.234978
20756.33984 0.234759
20756.64062 0.23454
20756.94922 0.234321
20757.25000 0.234102
20757.56055 0.233883
20757.85938 0.233663
20758.16992 0.233415
20758.47070 0.233141
20758.77930 0.232868
20759.08008 0.232595
20759.39062 0.232322
20759.68945 0.232048
20760.00000 0.231775
20760.30078 0.231483
20760.60938 0.231191
20760.91016 0.230901
20761.21094 0.230608
20761.51953 0.230316
20761.82031 0.230024
20762.13086 0.229774
20762.42969 0.229585
20762.74023 0.229395
20763.03906 0.229206
20763.34961 0.229016
20763.65039 0.228827
20763.96094 0.228637
20764.25977 0.228298
20764.56055 0.227933
20764.86914 0.227568
20765.16992 0.227202
20765.48047 0.226837
20765.77930 0.226471
20766.08984 0.226107
20766.39062 0.225745
20766.69922 0.225383
20767.00000 0.225021
20767.31055 0.224659
20767.60938 0.224297
20767.91992 0.223935
20768.22070 0.223647
20768.52930 0.223389
20768.83008 0.22313
20769.13086 0.222871
20769.43945 0.222612
20769.74023 0.222354
20770.05078 0.222077
20770.34961 0.221703
20770.66016 0.22133
20770.96094 0.220956
20771.26953 0.220583
20771.57031 0.220209
20771.88086 0.219833
20772.17969 0.219592
20772.49023 0.219439
20772.78906 0.219285
20773.09961 0.219132
20773.40039 0.218978
20773.71094 0.218825
20774.00977 0.21867
20774.32031 0.21848
20774.61914 0.21829
20774.92969 0.2181
20775.23047 0.21791
20775.53906 0.21772
20775.83984 0.21753
20776.14062 0.217155
20776.44922 0.216574
20776.75000 0.215993
20777.06055 0.215409
20777.36914 0.214827
20777.66992 0.214246
20777.97070 0.213665
20778.27930 0.213532
20778.58008 0.21344
20778.89062 0.213348
20779.18945 0.213255
20779.50000 0.213163
20779.80078 0.213071
20780.10938 0.212955
20780.41016 0.212793
20780.72070 0.212633
20781.01953 0.212473
20781.33008 0.212312
20781.63086 0.212151
20781.93945 0.211991
20782.24023 0.211591
20782.55078 0.21113
20782.84961 0.210665
20783.16016 0.210203
20783.46094 0.209742
20783.76953 0.20928
20784.07031 0.208854
20784.38086 0.208545
20784.67969 0.208236
20784.99023 0.207926
20785.28906 0.207615
20785.59961 0.207306
20785.90039 0.206996
20786.21094 0.206635
20786.50977 0.206249
20786.82031 0.205863
20787.11914 0.205475
20787.42969 0.205089
20787.73047 0.204703
20788.03906 0.204318
20788.33984 0.203945
20788.65039 0.203572
20788.94922 0.2032
20789.25977 0.202824
20789.56055 0.202451
20789.86914 0.202078
20790.16992 0.201744
20790.48047 0.201442
20790.77930 0.201137
20791.08984 0.200834
20791.39062 0.200531
20791.69922 0.200228
20792.00000 0.199925
20792.31055 0.199694
20792.60938 0.199464
20792.91992 0.199234
20793.22070 0.199004
20793.52930 0.198774
20793.83008 0.198542
20794.14062 0.198234
20794.43945 0.197832
20794.75000 0.19743
20795.05078 0.197028
20795.35938 0.196623
20795.66016 0.196221
20795.97070 0.195819
20796.26953 0.195481
20796.58008 0.19515
20796.88086 0.194817
20797.18945 0.194486
20797.49023 0.194155
20797.80078 0.193824
20798.10938 0.193494
20798.41016 0.193172
20798.71094 0.19285
20799.01953 0.192527
20799.33008 0.192203
20799.63086 0.19188
20799.93945 0.191558
20800.24023 0.191115
20800.55078 0.190638
20800.84961 0.190163
20801.16016 0.189688
20801.46094 0.189214
20801.76953 0.188736
20802.07031 0.188325
20802.38086 0.188122
20802.67969 0.187918
20802.99023 0.187714
20803.28906 0.18751
20803.59961 0.187307
20803.90039 0.187102
20804.21094 0.186816
20804.50977 0.186493
20804.82031 0.18617
20805.11914 0.185845
20805.42969 0.185521
20805.73047 0.185198
20806.03906 0.184878
20806.34961 0.184594
20806.65039 0.184311
20806.96094 0.184026
20807.25977 0.183742
20807.57031 0.183459
20807.86914 0.183175
20808.17969 0.182782
20808.48047 0.182312
20808.78906 0.181842
20809.08984 0.181369
20809.40039 0.1809
20809.69922 0.18043
20810.00977 0.179963
20810.31055 0.179678
20810.61914 0.179393
20810.92969 0.179107
20811.23047 0.178822
20811.53906 0.178537
20811.83984 0.17825
20812.15039 0.17795
20812.44922 0.177635
20812.75977 0.177317
20813.06055 0.177001
20813.36914 0.176685
20813.66992 0.176367
20813.98047 0.176051
20814.28906 0.175644
20814.58984 0.175233
20814.89062 0.174823
20815.19922 0.174409
20815.50977 0.173999
20815.81055 0.173588
20816.11914 0.17318
20816.41992 0.172784
20816.73047 0.172386
20817.02930 0.171991
20817.33984 0.171595
20817.64062 0.171197
20817.94922 0.170801
20818.25000 0.170423
20818.56055 0.170046
20818.86914 0.169672
20819.16992 0.169295
20819.48047 0.168921
20819.77930 0.168546
20820.08984 0.168233
20820.39062 0.168081
20820.69922 0.167927
20821.00000 0.167774
20821.31055 0.167622
20821.61914 0.167468
20821.91992 0.167315
20822.23047 0.166894
20822.52930 0.166382
20822.83984 0.165867
20823.14062 0.165355
20823.44922 0.164843
20823.75000 0.164327
20824.06055 0.163829
20824.36914 0.163387
20824.66992 0.162948
20824.98047 0.162506
20825.27930 0.162067
20825.58984 0.161628
20825.89062 0.161186
20826.19922 0.160794
20826.50000 0.160427
20826.81055 0.160061
20827.11914 0.159694
20827.41992 0.159328
20827.73047 0.158961
20828.02930 0.158607
20828.33984 0.158359
20828.64062 0.158113
20828.94922 0.157864
20829.25000 0.157618
20829.56055 0.157371
20829.86914 0.157123
20830.16992 0.156801
20830.48047 0.156417
20830.77930 0.156035
20831.08984 0.155651
20831.39062 0.15527
20831.69922 0.154886
20832.00000 0.154505
20832.31055 0.154186
20832.61914 0.15387
20832.91992 0.153551
20833.23047 0.153234
20833.52930 0.152915
20833.83984 0.152599
20834.14062 0.152344
20834.44922 0.152161
20834.75977 0.151978
20835.06055 0.151796
20835.36914 0.151612
20835.66992 0.15143
20835.98047 0.151246
20836.28906 0.150635
20836.58984 0.149996
20836.90039 0.149352
20837.19922 0.148713
20837.50977 0.148069
20837.81055 0.147429
20838.11914 0.146961
20838.41992 0.146769
20838.73047 0.146577
20839.03906 0.146386
20839.33984 0.146193
20839.65039 0.146002
20839.94922 0.145809
20840.25977 0.145539
20840.56055 0.145257
20840.86914 0.144974
20841.17969 0.144691
20841.48047 0.144407
20841.78906 0.144125
20842.08984 0.143824
20842.40039 0.143484
20842.71094 0.143145
20843.00977 0.142805
20843.32031 0.142466
20843.61914 0.142125
20843.92969 0.141787
20844.23047 0.141431
20844.53906 0.141071
20844.84961 0.140713
20845.15039 0.140352
20845.46094 0.139994
20845.75977 0.139634
20846.07031 0.13927
20846.38086 0.1389
20846.67969 0.138528
20846.99023 0.138158
20847.28906 0.137785
20847.59961 0.137412
20847.90039 0.137042
20848.21094 0.136728
20848.51953 0.136443
20848.82031 0.136157
20849.13086 0.13587
20849.42969 0.135585
20849.74023 0.135298
20850.05078 0.135002
20850.34961 0.134656
20850.66016 0.134308
20850.96094 0.133962
20851.26953 0.133614
20851.58008 0.133266
20851.88086 0.13292
20852.18945 0.13266
20852.49023 0.132456
20852.80078 0.132253
20853.10938 0.132049
20853.41016 0.131845
20853.72070 0.131642
20854.01953 0.131423
20854.33008 0.131022
20854.63086 0.130623
20854.93945 0.130222
20855.25000 0.129821
20855.55078 0.129422
20855.85938 0.12902
20856.16992 0.128602
20856.47070 0.128171
20856.77930 0.127738
20857.08008 0.127304
20857.39062 0.126874
20857.69922 0.12644
20858.00000 0.126007
20858.31055 0.125778
20858.60938 0.125548
20858.91992 0.125317
20859.22070 0.125088
20859.52930 0.124858
20859.83984 0.124627
20860.14062 0.124352
20860.44922 0.124029
20860.75977 0.123704
20861.06055 0.123379
20861.36914 0.123056
20861.66992 0.122731
20861.98047 0.122406
20862.28906 0.122041
20862.58984 0.121675
20862.90039 0.121307
20863.21094 0.12094
20863.50977 0.120574
20863.82031 0.120206
20864.11914 0.119897
20864.42969 0.119678
20864.73047 0.119459
20865.03906 0.119239
20865.34961 0.11902
20865.65039 0.1188
20865.96094 0.118581
20866.26953 0.11825
20866.57031 0.117901
20866.88086 0.117552
20867.17969 0.117205
20867.49023 0.116856
20867.80078 0.116506
20868.09961 0.116168
20868.41016 0.115854
20868.71094 0.115537
20869.01953 0.115221
20869.33008 0.114904
20869.63086 0.114587
20869.93945 0.114273
20870.25000 0.114063
20870.55078 0.113879
20870.85938 0.113696
20871.16016 0.113514
20871.47070 0.11333
20871.77930 0.113146
20872.08008 0.11287
20872.39062 0.11235
20872.69922 0.111833
20873.00000 0.111313
20873.31055 0.110793
20873.61914 0.110272
20873.91992 0.109752
20874.23047 0.109411
20874.52930 0.10913
20874.83984 0.108849
20875.15039 0.108568
20875.44922 0.108287
20875.75977 0.108006
20876.06055 0.107746
20876.36914 0.107557
20876.67969 0.107369
20876.98047 0.10718
20877.28906 0.106991
20877.59961 0.106802
20877.90039 0.106615
20878.21094 0.106344
20878.51953 0.106035
20878.82031 0.105726
20879.13086 0.105417
20879.43945 0.105108
20879.74023 0.1048
20880.05078 0.104494
20880.34961 0.104208
20880.66016 0.103921
20880.97070 0.103634
20881.26953 0.103347
20881.58008 0.10306
20881.88086 0.102775
20882.18945 0.102552
20882.50000 0.102367
20882.80078 0.102182
20883.10938 0.101997
20883.41992 0.101812
20883.72070 0.101627
20884.02930 0.101423
20884.33984 0.101057
20884.64062 0.100689
20884.94922 0.100321
20885.25977 0.099953
20885.56055 0.099585
20885.86914 0.099216
20886.17969 0.098775
20886.48047 0.098278
20886.78906 0.097781
20887.09961 0.097285
20887.40039 0.096791
20887.71094 0.096294
20888.00977 0.095817
20888.32031 0.095769
20888.63086 0.095721
20888.92969 0.095672
20889.24023 0.095624
20889.55078 0.095576
20889.84961 0.095527
20890.16016 0.095322
20890.47070 0.094972
20890.76953 0.094622
20891.08008 0.094272
20891.39062 0.093922
20891.68945 0.093574
20892.00000 0.093224
20892.30078 0.092998
20892.60938 0.092773
20892.91992 0.092548
20893.22070 0.092322
20893.52930 0.092097
20893.83984 0.091872
20894.14062 0.091672
20894.44922 0.091501
20894.75977 0.091331
20895.06055 0.09116
20895.36914 0.090989
20895.67969 0.090818
20895.98047 0.090647
20896.28906 0.090331
20896.59961 0.090006
20896.90039 0.089681
20897.21094 0.089357
20897.51953 0.089032
20897.82031 0.088707
20898.13086 0.088398
20898.43945 0.088111
20898.74023 0.087824
20899.05078 0.087536
20899.35938 0.087249
20899.66016 0.086962
20899.97070 0.086674
20900.27930 0.086536
20900.58008 0.086414
20900.89062 0.086293
20901.19922 0.086171
20901.50000 0.086049
20901.81055 0.085927
20902.11914 0.085706
20902.41992 0.085326
20902.73047 0.084946
20903.03906 0.084566
20903.33984 0.084186
20903.65039 0.083806
20903.96094 0.083426
20904.25977 0.083182
20904.57031 0.082961
20904.88086 0.08274
20905.17969 0.082518
20905.49023 0.082297
20905.80078 0.082076
20906.09961 0.081865
20906.41016 0.081675
20906.72070 0.081484
20907.01953 0.081294
20907.33008 0.081103
20907.64062 0.080913
20907.94922 0.080722
20908.25000 0.080508
20908.56055 0.080288
20908.86914 0.080068
20909.16992 0.079848
20909.48047 0.079627
20909.78906 0.079407
20910.08984 0.079217
20910.40039 0.079096
20910.71094 0.078976
20911.00977 0.078855
20911.32031 0.078734
20911.63086 0.078613
20911.92969 0.078492
20912.24023 0.078166
20912.55078 0.077782
20912.84961 0.077398
20913.16016 0.077014
20913.47070 0.07663
20913.76953 0.076246
20914.08008 0.075922
20914.39062 0.075767
20914.69922 0.075613
20915.00000 0.075459
20915.31055 0.075305
20915.61914 0.075152
20915.91992 0.074998
20916.23047 0.074793
20916.53906 0.074571
20916.83984 0.07435
20917.15039 0.074127
20917.46094 0.073905
20917.75977 0.073683
20918.07031 0.073484
20918.38086 0.073365
20918.67969 0.073245
20918.99023 0.073125
20919.30078 0.073005
20919.60938 0.072885
20919.91016 0.072765
20920.22070 0.072454
20920.52930 0.072067
20920.83008 0.07168
20921.14062 0.07129
20921.44922 0.070903
20921.75000 0.070515
20922.06055 0.070176
20922.36914 0.070034
20922.66992 0.069891
20922.98047 0.069748
20923.28906 0.069606
20923.59961 0.069463
20923.90039 0.069321
20924.21094 0.069182
20924.51953 0.069043
20924.82031 0.068906
20925.13086 0.068769
20925.43945 0.068631
20925.74023 0.068494
20926.05078 0.068314
20926.35938 0.067917
20926.66992 0.067522
20926.97070 0.067127
20927.27930 0.066732
20927.58984 0.066335
20927.89062 0.06594
20928.19922 0.065892
20928.50977 0.066026
20928.81055 0.066161
20929.11914 0.066296
20929.42969 0.06643
20929.74023 0.066565
20930.03906 0.066629
20930.34961 0.066259
20930.66016 0.065892
20930.96094 0.065525
20931.26953 0.065158
20931.58008 0.06479
20931.89062 0.064421
20932.18945 0.064158
20932.50000 0.063955
20932.81055 0.063753
20933.11914 0.063549
20933.41992 0.063347
20933.73047 0.063145
20934.03906 0.062949
20934.33984 0.0628
20934.65039 0.062652
20934.96094 0.062504
20935.26953 0.062355
20935.57031 0.062207
20935.88086 0.062059
20936.18945 0.061798
20936.49023 0.061461
20936.80078 0.061125
20937.10938 0.06079
20937.41016 0.060455
20937.72070 0.060118
20938.02930 0.059796
20938.33984 0.059597
20938.64062 0.059397
20938.94922 0.059199
20939.25977 0.059
20939.57031 0.0588
20939.86914 0.058602
20940.17969 0.058564
20940.49023 0.058641
20940.78906 0.058717
20941.09961 0.058793
20941.41016 0.05887
20941.72070 0.058946
20942.01953 0.058993
20942.33008 0.058675
20942.64062 0.058356
20942.94922 0.058039
20943.25000 0.057721
20943.56055 0.057402
20943.86914 0.057084
20944.16992 0.056897
20944.48047 0.056809
20944.78906 0.056721
20945.09961 0.056633
20945.40039 0.056545
20945.71094 0.056457
20946.01953 0.056363
20946.33008 0.056173
20946.63086 0.055984
20946.93945 0.055795
20947.25000 0.055604
20947.55078 0.055415
20947.85938 0.055225
20948.16992 0.055092
20948.48047 0.055006
20948.78906 0.054919
20949.08984 0.054832
20949.40039 0.054745
20949.71094 0.054658
20950.00977 0.054561
20950.32031 0.054239
20950.63086 0.05392
20950.93945 0.053601
20951.24023 0.053279
20951.55078 0.05296
20951.85938 0.05264
20952.16992 0.052517
20952.47070 0.052564
20952.77930 0.052611
20953.08984 0.052658
20953.39062 0.052705
20953.69922 0.052752
20954.00977 0.052781
20954.32031 0.052254
20954.61914 0.051731
20954.92969 0.051204
20955.24023 0.05068
20955.55078 0.050157
20955.85938 0.04963
20956.16016 0.049456
20956.47070 0.049595
20956.77930 0.049733
20957.08984 0.049873
20957.39062 0.050011
20957.69922 0.05015
20958.00977 0.050284
20958.31055 0.050211
20958.61914 0.050139
20958.92969 0.050066
20959.24023 0.049994
20959.53906 0.049922
20959.84961 0.049849
20960.16016 0.049691
20960.47070 0.049456
20960.77930 0.049219
20961.08008 0.048983
20961.39062 0.048746
20961.69922 0.048511
20962.00977 0.048275
20962.31055 0.048111
20962.61914 0.047946
20962.92969 0.047781
20963.24023 0.047616
20963.53906 0.047452
20963.84961 0.047286
20964.16016 0.047092
20964.47070 0.046869
20964.76953 0.046648
20965.08008 0.046425
20965.39062 0.046203
20965.69922 0.04598
20966.00000 0.045761
20966.31055 0.045728
20966.61914 0.045696
20966.92969 0.045663
20967.23047 0.04563
20967.53906 0.045598
20967.84961 0.045565
20968.16016 0.04547
20968.46094 0.045317
20968.76953 0.045164
20969.08008 0.045011
20969.39062 0.044857
20969.69922 0.044704
20970.00000 0.044549
20970.31055 0.044243
20970.61914 0.043936
20970.92969 0.04363
20971.23047 0.043323
20971.53906 0.043017
20971.84961 0.042709
20972.16016 0.042564
20972.46094 0.042574
20972.76953 0.042584
20973.08008 0.042594
20973.39062 0.042604
20973.69922 0.042613
20974.00000 0.042625
20974.31055 0.042759
20974.61914 0.042893
20974.92969 0.043028
20975.23047 0.043162
20975.53906 0.043297
20975.84961 0.043431
20976.16016 0.043382
20976.46094 0.043162
20976.76953 0.04294
20977.08008 0.042718
20977.39062 0.042497
20977.69922 0.042275
20978.00000 0.042054
20978.31055 0.041822
20978.61914 0.04159
20978.92969 0.04136
20979.24023 0.041128
20979.53906 0.040898
20979.84961 0.040666
20980.16016 0.040511
20980.47070 0.040429
20980.77930 0.040347
20981.08008 0.040264
20981.39062 0.040182
20981.69922 0.040099
20982.00977 0.040015
20982.31055 0.039824
20982.61914 0.039634
20982.92969 0.039444
20983.24023 0.039254
20983.53906 0.039064
20983.84961 0.038873
20984.16016 0.038706
20984.47070 0.038561
20984.77930 0.038415
20985.08984 0.038269
20985.39062 0.038123
20985.69922 0.037977
20986.00977 0.037831
20986.32031 0.037705
20986.61914 0.037577
20986.92969 0.03745
20987.24023 0.037322
20987.55078 0.037195
20987.85938 0.037068
20988.16016 0.036929
20988.47070 0.03678
20988.77930 0.036631
20989.08984 0.036482
20989.40039 0.036333
20989.71094 0.036184
20990.00977 0.036026
20990.32031 0.035607
20990.63086 0.035188
20990.93945 0.034771
20991.24023 0.034352
20991.55078 0.033933
20991.85938 0.033517
20992.16992 0.033543
20992.48047 0.033942
20992.77930 0.034339
20993.08984 0.034739
20993.40039 0.035138
20993.71094 0.035538
20994.01953 0.035922
20994.32031 0.036063
20994.63086 0.036205
20994.93945 0.036345
20995.25000 0.036487
20995.56055 0.036629
20995.86914 0.03677
20996.16992 0.036597
20996.48047 0.036174
20996.78906 0.035752
20997.09961 0.035332
20997.40039 0.034909
20997.71094 0.034486
20998.01953 0.034085
20998.33008 0.033963
20998.64062 0.03384
20998.94922 0.033717
20999.25000 0.033594
20999.56055 0.033472
20999.86914 0.033349
21000.17969 0.033245
21000.49023 0.033155
21000.78906 0.033065
21001.09961 0.032975
21001.41016 0.032885
21001.72070 0.032794
21002.02930 0.032706
21002.33008 0.032642
21002.64062 0.032577
21002.94922 0.032512
21003.25977 0.032448
21003.57031 0.032383
21003.86914 0.032319
21004.17969 0.032261
21004.49023 0.032207
21004.80078 0.032154
21005.10938 0.032101
21005.41992 0.032047
21005.72070 0.031994
21006.02930 0.031929
21006.33984 0.031766
21006.65039 0.031604
21006.96094 0.031441
21007.26953 0.031278
21007.57031 0.031115
21007.88086 0.030952
21008.18945 0.03078
21008.50000 0.030602
21008.81055 0.030423
21009.11914 0.030245
21009.41992 0.030066
21009.73047 0.029887
21010.03906 0.029745
21010.34961 0.029845
21010.66016 0.029946
21010.96094 0.030047
21011.26953 0.030147
21011.58008 0.030248
21011.89062 0.030347
21012.19922 0.030308
21012.50977 0.03019
21012.81055 0.030071
21013.11914 0.029953
21013.42969 0.029835
21013.74023 0.029716
21014.05078 0.029605
21014.35938 0.029529
21014.66016 0.029454
21014.97070 0.029378
21015.27930 0.029302
21015.58984 0.029226
21015.90039 0.02915
21016.21094 0.029003
21016.50977 0.02882
21016.82031 0.028636
21017.13086 0.028453
21017.43945 0.028269
21017.75000 0.028086
21018.06055 0.02793
21018.36914 0.027896
21018.66992 0.027862
21018.98047 0.027828
21019.28906 0.027794
21019.59961 0.02776
21019.91016 0.027726
21020.21094 0.027717
21020.51953 0.027719
21020.83008 0.027721
21021.14062 0.027723
21021.44922 0.027724
21021.75977 0.027726
21022.07031 0.027658
21022.36914 0.027337
21022.67969 0.027014
21022.99023 0.026691
21023.30078 0.026368
21023.60938 0.026045
21023.91992 0.025722
21024.22070 0.025641
21024.52930 0.025652
21024.83984 0.025662
21025.15039 0.025672
21025.46094 0.025682
21025.76953 0.025693
21026.08008 0.025694
21026.38086 0.025669
21026.68945 0.025644
21027.00000 0.02562
21027.31055 0.025595
21027.61914 0.02557
21027.92969 0.025545
21028.23047 0.02559
21028.53906 0.025657
21028.84961 0.025724
21029.16016 0.025791
21029.47070 0.025858
21029.77930 0.025925
21030.08984 0.025855
21030.39062 0.02543
21030.69922 0.025005
21031.00977 0.024579
21031.32031 0.024154
21031.63086 0.023729
21031.93945 0.023304
21032.25000 0.02332
21032.55078 0.023449
21032.85938 0.023578
21033.16992 0.023706
21033.48047 0.023835
21033.78906 0.023964
21034.09961 0.024037
21034.41016 0.023989
21034.71094 0.023942
21035.01953 0.023895
21035.33008 0.023848
21035.64062 0.0238
21035.94922 0.023753
21036.25977 0.023714
21036.57031 0.023676
21036.88086 0.023637
21037.18945 0.023599
21037.49023 0.023561
21037.80078 0.023523
21038.10938 0.023395
21038.41992 0.023106
21038.73047 0.022817
21039.03906 0.022529
21039.34961 0.02224
21039.65039 0.021951
21039.96094 0.021663
21040.26953 0.021879
21040.58008 0.022164
21040.89062 0.022449
21041.19922 0.022734
21041.50977 0.023019
21041.81055 0.023304
21042.11914 0.023436
21042.42969 0.023336
21042.74023 0.023235
21043.05078 0.023135
21043.35938 0.023035
21043.66992 0.022934
21043.98047 0.022834
21044.28906 0.022826
21044.58984 0.022826
21044.90039 0.022826
21045.21094 0.022825
21045.51953 0.022825
21045.83008 0.022824
21046.14062 0.022784
21046.44922 0.022693
21046.75977 0.022603
21047.06055 0.022513
21047.36914 0.022422
21047.67969 0.022332
21047.99023 0.022242
21048.30078 0.022103
21048.60938 0.021962
21048.91992 0.021821
21049.23047 0.02168
21049.53906 0.02154
21049.83984 0.021399
21050.15039 0.021235
21050.46094 0.021046
21050.76953 0.020857
21051.08008 0.020668
21051.39062 0.020478
21051.69922 0.020289
21052.00977 0.020102
21052.31055 0.020009
21052.61914 0.019916
21052.92969 0.019823
21053.24023 0.019729
21053.55078 0.019636
21053.85938 0.019543
21054.16992 0.019599
21054.48047 0.019781
21054.78906 0.019962
21055.08984 0.020144
21055.40039 0.020326
21055.71094 0.020508
21056.01953 0.020655
21056.33008 0.020351
21056.64062 0.020047
21056.94922 0.019741
21057.25977 0.019438
21057.57031 0.019134
21057.86914 0.01883
21058.17969 0.018605
21058.49023 0.018433
21058.80078 0.018262
21059.10938 0.018091
21059.41992 0.01792
21059.73047 0.01775
21060.03906 0.017623
21060.34961 0.017812
21060.66016 0.018001
21060.96094 0.018189
21061.26953 0.018378
21061.58008 0.018568
21061.89062 0.018757
21062.19922 0.018801
21062.50977 0.018767
21062.82031 0.018733
21063.13086 0.018699
21063.43945 0.018665
21063.75000 0.018632
21064.05078 0.018589
21064.36914 0.018505
21064.66992 0.018422
21064.98047 0.018338
21065.28906 0.018255
21065.59961 0.018171
21065.91016 0.018087
21066.22070 0.018111
21066.52930 0.018178
21066.83984 0.018245
21067.15039 0.018312
21067.46094 0.018379
21067.75977 0.018447
21068.07031 0.018437
21068.38086 0.018184
21068.68945 0.017932
21069.00000 0.017679
21069.31055 0.017425
21069.61914 0.017172
21069.92969 0.016919
21070.24023 0.01711
21070.55078 0.017434
21070.85938 0.017759
21071.16016 0.018083
21071.47070 0.018409
21071.77930 0.018733
21072.08984 0.01882
21072.40039 0.018344
21072.71094 0.01787
21073.01953 0.017397
21073.33008 0.01692
21073.64062 0.016447
21073.94922 0.015973
21074.25977 0.015849
21074.57031 0.015798
21074.88086 0.015746
21075.17969 0.015695
21075.49023 0.015643
21075.80078 0.015592
21076.10938 0.015688
21076.41992 0.016047
21076.73047 0.016404
21077.03906 0.016761
21077.34961 0.01712
21077.66016 0.017477
21077.97070 0.017834
21078.27930 0.017557
21078.58984 0.017205
21078.89062 0.016853
21079.21094 0.016499
21079.50977 0.016148
21079.82031 0.015794
21080.13086 0.015662
21080.43945 0.015823
21080.75000 0.015984
21081.06055 0.016144
21081.36914 0.016304
21081.67969 0.016465
21081.99023 0.016626
21082.30078 0.016282
21082.60938 0.015916
21082.91992 0.015552
21083.23047 0.015187
21083.53906 0.014823
21083.83984 0.014459
21084.15039 0.01431
21084.46094 0.01438
21084.76953 0.01445
21085.08008 0.01452
21085.39062 0.014589
21085.69922 0.014659
21086.00977 0.014728
21086.32031 0.014776
21086.63086 0.014824
21086.93945 0.014871
21087.25000 0.014919
21087.56055 0.014966
21087.86914 0.015014
21088.17969 0.01516
21088.48047 0.01538
21088.78906 0.015602
21089.09961 0.015822
21089.41016 0.016043
21089.72070 0.016263
21090.02930 0.016438
21090.33984 0.016221
21090.65039 0.016004
21090.96094 0.015786
21091.26953 0.015569
21091.58008 0.01535
21091.89062 0.015134
21092.19922 0.014927
21092.50977 0.014728
21092.82031 0.014528
21093.13086 0.014328
21093.43945 0.014129
21093.75000 0.013929
21094.05078 0.013753
21094.36914 0.013685
21094.66992 0.013618
21094.98047 0.01355
21095.28906 0.013482
21095.59961 0.013414
21095.91016 0.013347
21096.22070 0.013463
21096.52930 0.013652
21096.83984 0.013842
21097.15039 0.01403
21097.46094 0.01422
21097.76953 0.014408
21098.08008 0.014466
21098.39062 0.014147
21098.69922 0.013826
21099.00977 0.013507
21099.32031 0.013186
21099.63086 0.012867
21099.93945 0.012545
21100.25000 0.012496
21100.56055 0.012514
21100.86914 0.012533
21101.17969 0.012552
21101.48047 0.01257
21101.78906 0.012589
21102.09961 0.012573
21102.41016 0.01249
21102.72070 0.012407
21103.02930 0.012323
21103.33984 0.01224
21103.65039 0.012156
21103.96094 0.012073
21104.26953 0.012215
21104.58008 0.012389
21104.89062 0.012563
21105.19922 0.012738
21105.50977 0.012911
21105.82031 0.013086
21106.13086 0.01317
21106.43945 0.013131
21106.75000 0.013092
21107.06055 0.013052
21107.36914 0.013013
21107.67969 0.012974
21107.99023 0.012934
21108.30078 0.012827
21108.60938 0.012717
21108.91992 0.012608
21109.23047 0.012497
21109.53906 0.012388
21109.84961 0.012278
21110.16016 0.012223
21110.46094 0.012222
21110.77930 0.012221
21111.08008 0.012221
21111.39062 0.01222
21111.71094 0.012219
21112.00977 0.012219
21112.32031 0.012217
21112.63086 0.012214
21112.93945 0.012212
21113.25000 0.01221
21113.56055 0.012208
21113.86914 0.012206
21114.17969 0.012206
21114.49023 0.012208
21114.80078 0.012209
21115.10938 0.012211
21115.41992 0.012212
21115.73047 0.012214
21116.03906 0.01219
21116.34961 0.012
21116.66016 0.011812
21116.97070 0.011622
21117.27930 0.011432
21117.58984 0.011243
21117.90039 0.011053
21118.21094 0.01106
21118.51953 0.01116
21118.83008 0.01126
21119.14062 0.01136
21119.44922 0.011461
21119.75977 0.011561
21120.07031 0.011615
21120.38086 0.011507
21120.68945 0.011399
21121.00000 0.011291
21121.31055 0.011183
21121.61914 0.011075
21121.92969 0.010967
21122.24023 0.010901
21122.55078 0.010847
21122.85938 0.010794
21123.16992 0.010741
21123.48047 0.010687
21123.78906 0.010634
21124.09961 0.010647
21124.41016 0.010806
21124.72070 0.010965
21125.02930 0.011122
21125.33984 0.011281
21125.65039 0.01144
21125.96094 0.011598
21126.26953 0.011206
21126.58008 0.010725
21126.89062 0.010248
21127.19922 0.009768
21127.50977 0.009287
21127.82031 0.008807
21128.13086 0.008646
21128.43945 0.008939
21128.75000 0.009232
21129.06055 0.009525
21129.36914 0.009816
21129.67969 0.01011
21129.99023 0.010403
21130.30078 0.010337
21130.60938 0.010257
21130.91992 0.010177
21131.23047 0.010097
21131.53906 0.010017
21131.84961 0.009937
21132.16016 0.009984
21132.47070 0.010151
21132.77930 0.010318
21133.08984 0.010486
21133.40039 0.010654
21133.71094 0.010821
21134.01953 0.010969
21134.33008 0.01081
21134.64062 0.01065
21134.94922 0.01049
21135.25977 0.010331
21135.57031 0.010171
21135.88086 0.010011
21136.18945 0.01
21136.50000 0.010083
21136.81055 0.010166
21137.11914 0.010249
21137.42969 0.010333
21137.74023 0.010416
21138.05078 0.010461
21138.35938 0.01031
21138.66992 0.010158
21138.98047 0.010006
21139.28906 0.009854
21139.59961 0.009703
21139.91016 0.009552
21140.22070 0.00929
21140.52930 0.008985
21140.83984 0.008679
21141.15039 0.008374
21141.46094 0.00807
21141.76953 0.007765
21142.08008 0.007642
21142.39062 0.008027
21142.69922 0.008412
21143.00977 0.008798
21143.32031 0.009181
21143.63086 0.009566
21143.93945 0.009952
21144.25000 0.009984
21144.56055 0.009938
21144.88086 0.009892
21145.17969 0.009846
21145.49023 0.009799
21145.80078 0.009753
21146.11914 0.009625
21146.42969 0.009358
21146.74023 0.009091
21147.05078 0.008825
21147.35938 0.00856
21147.66992 0.008293
21147.98047 0.008026
21148.28906 0.008065
21148.59961 0.00813
21148.91016 0.008194
21149.22070 0.008258
21149.52930 0.008322
21149.83984 0.008386
21150.15039 0.008494
21150.46094 0.00865
21150.76953 0.008805
21151.08008 0.008961
21151.39062 0.009116
21151.69922 0.009272
21152.00977 0.009413
21152.32031 0.009193
21152.63086 0.008974
21152.93945 0.008753
21153.25000 0.008533
21153.56055 0.008312
21153.86914 0.008092
21154.17969 0.008073
21154.49023 0.008193
21154.80078 0.008313
21155.11914 0.008434
21155.42969 0.008554
21155.74023 0.008674
21156.03906 0.008724
21156.35938 0.00836
21156.66992 0.007996
21156.98047 0.007633
21157.28906 0.007269
21157.59961 0.006905
21157.91016 0.006542
21158.22070 0.006597
21158.52930 0.006828
21158.83984 0.007059
21159.15039 0.007289
21159.46094 0.00752
21159.76953 0.007751
21160.08008 0.007988
21160.39062 0.008243
21160.69922 0.008497
21161.00977 0.008752
21161.32031 0.009007
21161.63086 0.009261
21161.94922 0.009516
21162.25977 0.009485
21162.56055 0.009393
21162.86914 0.009301
21163.18945 0.009209
21163.50000 0.009116
21163.81055 0.009024
21164.11914 0.008802
21164.42969 0.008368
21164.74023 0.007933
21165.05078 0.007498
21165.35938 0.007063
21165.66992 0.006628
21165.98047 0.006193
21166.28906 0.006212
21166.59961 0.006262
21166.91016 0.006311
21167.22070 0.006361
21167.52930 0.006411
21167.83984 0.00646
21168.15039 0.006459
21168.46094 0.006405
21168.77930 0.006351
21169.08984 0.006298
21169.40039 0.006244
21169.71094 0.006191
21170.01953 0.006155
21170.33008 0.006387
21170.64062 0.006618
21170.94922 0.00685
21171.25977 0.007082
21171.57031 0.007313
21171.88086 0.007545
21172.18945 0.007456
21172.50000 0.007173
21172.81055 0.006891
21173.11914 0.006608
21173.43945 0.006325
21173.75000 0.006042
21174.06055 0.005881
21174.36914 0.006266
21174.67969 0.006651
21174.99023 0.007036
21175.30078 0.007424
21175.60938 0.007808
21175.91992 0.008193
21176.23047 0.008152
21176.53906 0.007967
21176.84961 0.007783
21177.16016 0.007598
21177.47070 0.007413
21177.78906 0.007229
21178.09961 0.007109
21178.41016 0.007133
21178.72070 0.007157
21179.02930 0.007181
21179.33984 0.007206
21179.65039 0.00723
21179.96094 0.007254
21180.26953 0.007246
21180.58008 0.007233
21180.89062 0.00722
21181.19922 0.007208
21181.50977 0.007195
21181.83008 0.007182
21182.14062 0.007151
21182.44922 0.007097
21182.75977 0.007043
21183.07031 0.006989
21183.38086 0.006935
21183.68945 0.006881
21184.00000 0.006827
21184.31055 0.006827
21184.61914 0.006827
21184.92969 0.006827
21185.24023 0.006827
21185.55078 0.006827
21185.86914 0.006827
21186.17969 0.00682
21186.49023 0.006806
21186.80078 0.006792
21187.10938 0.006779
21187.41992 0.006765
21187.73047 0.006751
21188.03906 0.006741
21188.34961 0.006751
21188.66016 0.006761
21188.97070 0.006772
21189.28906 0.006782
21189.59961 0.006792
21189.91016 0.006802
21190.22070 0.006723
21190.52930 0.006607
21190.83984 0.006491
21191.15039 0.006374
21191.46094 0.006258
21191.76953 0.006141
21192.08008 0.006033
21192.39062 0.00595
21192.71094 0.005867
21193.01953 0.005783
21193.33008 0.005699
21193.64062 0.005616
21193.94922 0.005532
21194.25977 0.00568
21194.57031 0.005874
21194.88086 0.006067
21195.18945 0.00626
21195.50000 0.006453
21195.81055 0.006646
21196.13086 0.006755
21196.43945 0.006737
21196.75000 0.00672
21197.06055 0.006702
21197.36914 0.006685
21197.67969 0.006667
21197.99023 0.00665
21198.30078 0.006534
21198.61914 0.006416
21198.92969 0.006298
21199.24023 0.006179
21199.55078 0.006061
21199.85938 0.005942
21200.16992 0.005836
21200.48047 0.005741
21200.78906 0.005645
21201.09961 0.005548
21201.41016 0.005452
21201.72070 0.005356
21202.03906 0.005285
21202.34961 0.005404
21202.66016 0.005523
21202.97070 0.005641
21203.27930 0.005761
21203.58984 0.00588
21203.90039 0.005998
21204.21094 0.005956
21204.52930 0.005839
21204.83984 0.005722
21205.15039 0.005606
21205.46094 0.005489
21205.76953 0.005372
21206.08008 0.005288
21206.39062 0.005299
21206.69922 0.00531
21207.00977 0.005321
21207.32031 0.005331
21207.64062 0.005342
21207.94922 0.005353
21208.25977 0.005355
21208.57031 0.005356
21208.88086 0.005358
21209.18945 0.005359
21209.50000 0.00536
21209.81055 0.005361
21210.11914 0.005378
21210.43945 0.005419
21210.75000 0.00546
21211.06055 0.005501
21211.36914 0.005542
21211.67969 0.005583
21211.99023 0.005624
21212.30078 0.005625
21212.61914 0.005625
21212.92969 0.005625
21213.24023 0.005625
21213.55078 0.005624
21213.85938 0.005624
21214.16992 0.005462
21214.48047 0.005169
21214.78906 0.004873
21215.10938 0.00458
21215.41992 0.004287
21215.73047 0.003991
21216.03906 0.003768
21216.34961 0.004036
21216.66016 0.004302
21216.97070 0.004568
21217.28906 0.004835
21217.59961 0.005101
21217.91016 0.005367
21218.22070 0.005395
21218.52930 0.005322
21218.83984 0.005248
21219.15039 0.005174
21219.46094 0.005101
21219.77930 0.005027
21220.08984 0.00491
21220.40039 0.004678
21220.71094 0.004448
21221.01953 0.004216
21221.33008 0.003986
21221.64062 0.003755
21221.96094 0.003523
21222.26953 0.003671
21222.58008 0.003883
21222.89062 0.004095
21223.19922 0.004306
21223.50977 0.004519
21223.82031 0.00473
21224.13086 0.004892
21224.44922 0.004986
21224.75977 0.005081
21225.07031 0.005175
21225.38086 0.00527
21225.68945 0.005364
21226.00000 0.005457
21226.31055 0.005352
21226.61914 0.005248
21226.93945 0.005143
21227.25000 0.005038
21227.56055 0.004933
21227.86914 0.004829
21228.17969 0.004802
21228.49023 0.004831
21228.81055 0.00486
21229.11914 0.004888
21229.42969 0.004917
21229.74023 0.004946
21230.05078 0.004957
21230.35938 0.004887
21230.67969 0.004816
21230.99023 0.004746
21231.30078 0.004675
21231.60938 0.004605
21231.91992 0.004534
21232.23047 0.00445
21232.53906 0.00436
21232.85938 0.004271
21233.16992 0.004182
21233.48047 0.004093
21233.78906 0.004004
21234.09961 0.004086
21234.41016 0.004523
21234.72070 0.004957
21235.03906 0.005394
21235.34961 0.005829
21235.66016 0.006266
21235.97070 0.0067
21236.27930 0.006378
21236.58984 0.00598
21236.91016 0.00558
21237.22070 0.005182
21237.52930 0.004781
21237.83984 0.004383
21238.15039 0.004192
21238.46094 0.004221
21238.77930 0.00425
21239.08984 0.004279
21239.40039 0.004307
21239.71094 0.004336
21240.01953 0.004367
21240.33008 0.004434
21240.64062 0.0045
21240.96094 0.004566
21241.26953 0.004632
21241.58008 0.004698
21241.89062 0.004764
21242.19922 0.004788
21242.51953 0.004789
21242.83008 0.004789
21243.14062 0.00479
21243.44922 0.004791
21243.75977 0.004792
21244.07031 0.004799
21244.38086 0.004826
21244.69922 0.004852
21245.00977 0.004879
21245.32031 0.004906
21245.63086 0.004932
21245.93945 0.004959
21246.25977 0.004706
21246.57031 0.004391
21246.88086 0.004078
21247.18945 0.003763
21247.50000 0.003451
21247.81055 0.003136
21248.13086 0.003043
21248.43945 0.003274
21248.75000 0.003506
21249.06055 0.003737
21249.36914 0.00397
21249.68945 0.004202
21250.00000 0.004433
21250.31055 0.00437
21250.61914 0.004304
21250.92969 0.004238
21251.24023 0.004172
21251.56055 0.004105
21251.86914 0.004039
21252.17969 0.00394
21252.49023 0.003816
21252.80078 0.003693
21253.11914 0.003569
21253.42969 0.003445
21253.74023 0.003322
21254.05078 0.003199
21254.35938 0.003079
21254.66992 0.00296
21254.99023 0.002841
21255.30078 0.002721
21255.60938 0.002602
21255.91992 0.002482
21256.23047 0.002531
21256.53906 0.002634
21256.85938 0.002739
21257.16992 0.002843
21257.48047 0.002947
21257.78906 0.003051
21258.10938 0.003164
21258.41992 0.003295
21258.73047 0.003426
21259.03906 0.003557
21259.34961 0.003688
21259.66016 0.003819
21259.98047 0.00395
21260.28906 0.003882
21260.59961 0.003799
21260.91016 0.003714
21261.22070 0.00363
21261.53906 0.003546
21261.84961 0.003462
21262.16016 0.003363
21262.47070 0.003249
21262.77930 0.003137
21263.09961 0.003023
21263.41016 0.00291
21263.72070 0.002796
21264.02930 0.002716
21264.33984 0.002921
21264.66016 0.003126
21264.97070 0.003331
21265.27930 0.003535
21265.58984 0.003741
21265.90039 0.003946
21266.22070 0.003981
21266.52930 0.00394
21266.83984 0.003899
21267.15039 0.003859
21267.46094 0.003818
21267.77930 0.003777
21268.08984 0.003725
21268.40039 0.003642
21268.71094 0.00356
21269.01953 0.003478
21269.33984 0.003396
21269.65039 0.003314
21269.96094 0.003231
21270.26953 0.003307
21270.58008 0.003405
21270.90039 0.003503
21271.21094 0.003601
21271.51953 0.003699
21271.83008 0.003798
21272.14062 0.003844
21272.46094 0.003831
21272.76953 0.003818
21273.08008 0.003805
21273.39062 0.003793
21273.71094 0.00378
21274.01953 0.003769
21274.33008 0.003797
21274.64062 0.003826
21274.96094 0.003854
21275.26953 0.003882
21275.58008 0.00391
21275.89062 0.003938
21276.19922 0.003867
21276.51953 0.003741
21276.83008 0.003615
21277.14062 0.00349
21277.44922 0.003365
21277.75977 0.003239
21278.08008 0.003172
21278.39062 0.003286
21278.69922 0.003401
21279.00977 0.003515
21279.32031 0.003629
21279.64062 0.003743
21279.94922 0.003857
21280.25977 0.003839
21280.57031 0.003795
21280.89062 0.003751
21281.19922 0.003707
21281.50977 0.003664
21281.82031 0.00362
21282.13086 0.003546
21282.44922 0.003434
21282.75977 0.003322
21283.07031 0.00321
21283.38086 0.003098
21283.69922 0.002986
21284.00977 0.002873
21284.32031 0.002691
21284.63086 0.002508
21284.94922 0.002326
21285.25977 0.002144
21285.57031 0.001962
21285.88086 0.001779
21286.19922 0.001912
21286.50977 0.002234
21286.82031 0.002555
21287.13086 0.002875
21287.43945 0.003196
21287.75977 0.003518
21288.07031 0.00376
21288.38086 0.003721
21288.68945 0.003681
21289.00977 0.003641
21289.32031 0.003601
21289.63086 0.003561
21289.93945 0.003521
21290.25977 0.003434
21290.57031 0.003336
21290.88086 0.003238
21291.18945 0.00314
21291.50000 0.003043
21291.82031 0.002945
21292.13086 0.002917
21292.43945 0.002989
21292.75000 0.00306
21293.07031 0.003132
21293.38086 0.003204
21293.68945 0.003276
21294.00000 0.003347
21294.32031 0.003334
21294.63086 0.00332
21294.93945 0.003307
21295.25000 0.003294
21295.57031 0.00328
21295.88086 0.003267
21296.18945 0.00327
21296.50000 0.003284
21296.82031 0.003297
21297.13086 0.003311
21297.43945 0.003324
21297.75000 0.003338
21298.07031 0.00334
21298.38086 0.003298
21298.68945 0.003256
21299.00000 0.003215
21299.32031 0.003173
21299.63086 0.003131
21299.93945 0.00309
21300.25000 0.003091
21300.57031 0.003102
21300.88086 0.003113
21301.18945 0.003124
21301.50000 0.003135
21301.82031 0.003146
21302.13086 0.003056
21302.43945 0.002822
21302.75000 0.002589
21303.07031 0.002356
21303.38086 0.002123
21303.68945 0.001889
21304.00000 0.001661
21304.32031 0.001828
21304.63086 0.001996
21304.93945 0.002163
21305.25000 0.002331
21305.57031 0.002498
21305.88086 0.002666
21306.18945 0.002722
21306.50977 0.002708
21306.82031 0.002694
21307.13086 0.00268
21307.43945 0.002667
21307.75977 0.002653
21308.07031 0.002648
21308.38086 0.002677
21308.68945 0.002706
21309.00977 0.002735
21309.32031 0.002764
21309.63086 0.002794
21309.93945 0.002823
21310.25977 0.002896
21310.57031 0.002981
21310.88086 0.003064
21311.19922 0.003148
21311.50977 0.003231
21311.82031 0.003315
21312.13086 0.003358
21312.44922 0.003345
21312.75977 0.003332
21313.07031 0.003319
21313.38086 0.003306
21313.69922 0.003293
21314.00977 0.003271
21314.32031 0.002959
21314.63086 0.002646
21314.94922 0.002334
21315.25977 0.002021
21315.57031 0.001708
21315.88086 0.001396
21316.19922 0.001392
21316.50977 0.001566
21316.82031 0.001739
21317.14062 0.001913
21317.44922 0.002087
21317.75977 0.002261
21318.07031 0.002407
21318.39062 0.002463
21318.69922 0.002519
21319.00977 0.002575
21319.33008 0.002631
21319.64062 0.002686
21319.94922 0.002742
21320.25977 0.00296
21320.58008 0.00321
21320.89062 0.003458
21321.19922 0.003707
21321.51953 0.003955
21321.83008 0.004203
21322.14062 0.004202
21322.46094 0.003894
21322.76953 0.003588
21323.08008 0.003282
21323.39062 0.002975
21323.71094 0.002669
21324.01953 0.00237
21324.33008 0.002201
21324.64062 0.002032
21324.96094 0.001863
21325.26953 0.001694
21325.58008 0.001524
21325.90039 0.001355
21326.21094 0.001411
21326.51953 0.001579
21326.83008 0.001748
21327.15039 0.001917
21327.46094 0.002085
21327.76953 0.002253
21328.08984 0.002364
21328.40039 0.002322
21328.71094 0.00228
21329.02930 0.002238
21329.33984 0.002197
21329.65039 0.002155
21329.96094 0.002113
21330.27930 0.002007
21330.58984 0.001893
21330.90039 0.00178
21331.22070 0.001665
21331.52930 0.001551
21331.83984 0.001437
21332.15039 0.001436
21332.47070 0.001552
21332.77930 0.001667
21333.08984 0.001782
21333.41016 0.001896
21333.72070 0.002012
21334.02930 0.002111
21334.34961 0.002082
21334.66016 0.002054
21334.97070 0.002024
21335.28906 0.001995
21335.59961 0.001967
21335.91016 0.001937
21336.22070 0.001919
21336.53906 0.001904
21336.84961 0.001889
21337.16016 0.001874
21337.48047 0.001859
21337.78906 0.001844
21338.09961 0.001896
21338.41992 0.002082
21338.73047 0.002269
21339.03906 0.002455
21339.35938 0.002642
21339.66992 0.002829
21339.98047 0.003015
21340.28906 0.002945
21340.60938 0.002859
21340.91992 0.002773
21341.23047 0.002687
21341.55078 0.002601
21341.85938 0.002515
21342.16992 0.002405
21342.49023 0.002276
21342.80078 0.002148
21343.10938 0.002019
21343.42969 0.001891
21343.74023 0.001762
21344.05078 0.001665
21344.36914 0.001727
21344.67969 0.001789
21344.99023 0.001852
21345.30078 0.001914
21345.61914 0.001975
21345.92969 0.002038
21346.24023 0.002028
21346.56055 0.001998
21346.86914 0.001968
21347.17969 0.001938
21347.50000 0.001909
21347.81055 0.001879
21348.11914 0.001882
21348.43945 0.001938
21348.75000 0.001994
21349.06055 0.002049
21349.38086 0.002105
21349.68945 0.002161
21350.00000 0.002215
21350.32031 0.002087
21350.63086 0.001961
21350.93945 0.001833
21351.25977 0.001707
21351.57031 0.00158
21351.88086 0.001452
21352.19922 0.001474
21352.50977 0.001587
21352.82031 0.001698
21353.13086 0.001809
21353.44922 0.001922
21353.75977 0.002033
21354.08008 0.002128
21354.39062 0.002172
21354.69922 0.002215
21355.01953 0.002258
21355.33008 0.002301
21355.64062 0.002344
21355.96094 0.002388
21356.26953 0.002466
21356.58008 0.00255
21356.90039 0.002635
21357.21094 0.002719
21357.51953 0.002803
21357.83984 0.002887
21358.15039 0.00273
21358.46094 0.002305
21358.77930 0.001882
21359.08984 0.001456
21359.40039 0.001033
21359.72070 0.000607
23495.69336 0.0
