# %ECSV 0.9
# ---
# datatype:
# - {name: wavelength, unit: Angstrom, datatype: float32}
# - {name: response, datatype: float32}
# meta: !!omap
# - {band_name: F175W}
# - {group_name: NICMOS3}
wavelength response
10422.59375 0.0
11580.66016 0.0004
11581.71973 0.000402
11582.78027 0.000404
11583.83984 0.000406
11584.91016 0.000408
11585.96973 0.000413
11587.03027 0.000418
11588.08984 0.000423
11589.16016 0.000428
11590.21973 0.000432
11591.28027 0.000433
11592.33984 0.000434
11593.41016 0.000435
11594.46973 0.000436
11595.53027 0.000439
11596.59961 0.000443
11597.66016 0.000447
11598.71973 0.000452
11599.79004 0.000456
11600.84961 0.000461
11601.91016 0.000466
11602.98047 0.00047
11604.04004 0.000475
11605.11035 0.00048
11606.16992 0.000485
11607.23047 0.00049
11608.29980 0.000494
11609.36035 0.000499
11610.42969 0.000503
11611.49023 0.000505
11612.55957 0.000508
11613.62012 0.000511
11614.69043 0.000513
11615.75000 0.000518
11616.82031 0.000524
11617.87988 0.00053
11618.95020 0.000536
11620.00977 0.000542
11621.08008 0.000545
11622.13965 0.000548
11623.20996 0.000551
11624.28027 0.000555
11625.33984 0.000559
11626.41016 0.000567
11627.46973 0.000575
11628.54004 0.000583
11629.61035 0.000591
11630.66992 0.000597
11631.74023 0.000604
11632.79980 0.00061
11633.87012 0.000616
11634.94043 0.000622
11636.00000 0.000626
11637.07031 0.000631
11638.13965 0.000636
11639.20996 0.00064
11640.26953 0.000645
11641.33984 0.00065
11642.41016 0.000654
11643.48047 0.000659
11644.54004 0.000664
11645.61035 0.000671
11646.67969 0.00068
11647.75000 0.00069
11648.80957 0.000699
11649.87988 0.000708
11650.95020 0.000713
11652.01953 0.000718
11653.08984 0.000723
11654.16016 0.000728
11655.21973 0.000734
11656.29004 0.000744
11657.36035 0.000755
11658.42969 0.000765
11659.50000 0.000775
11660.57031 0.000784
11661.63965 0.00079
11662.70996 0.000797
11663.78027 0.000803
11664.84961 0.000809
11665.91992 0.00082
11666.99023 0.000832
11668.05957 0.000844
11669.12012 0.000855
11670.20020 0.000866
11671.26953 0.000875
11672.33984 0.000884
11673.41016 0.000893
11674.48047 0.000901
11675.54980 0.000911
11676.62012 0.000921
11677.69043 0.000931
11678.75977 0.000941
11679.83008 0.000951
11680.90039 0.00096
11681.96973 0.000968
11683.04004 0.000977
11684.11035 0.000985
11685.19043 0.000995
11686.25977 0.001009
11687.33008 0.001024
11688.40039 0.001039
11689.46973 0.001053
11690.54004 0.001067
11691.62012 0.00108
11692.69043 0.001093
11693.75977 0.001105
11694.83008 0.001118
11695.90039 0.00113
11696.98047 0.001142
11698.04980 0.001153
11699.12012 0.001165
11700.19043 0.001177
11701.26953 0.001192
11702.33984 0.001207
11703.41016 0.001222
11704.49023 0.001237
11705.55957 0.001251
11706.62988 0.001264
11707.70996 0.001277
11708.78027 0.00129
11709.84961 0.001303
11710.92969 0.001318
11712.00000 0.001333
11713.07031 0.001349
11714.15039 0.001364
11715.21973 0.001379
11716.29980 0.001395
11717.37012 0.00141
11718.45020 0.001426
11719.51953 0.001442
11720.58984 0.001458
11721.66992 0.001475
11722.74023 0.001492
11723.82031 0.001509
11724.88965 0.001526
11725.96973 0.001544
11727.04004 0.001562
11728.12012 0.001581
11729.20020 0.001599
11730.26953 0.001618
11731.34961 0.001639
11732.41992 0.00166
11733.50000 0.001682
11734.57031 0.001703
11735.65039 0.001722
11736.73047 0.00174
11737.79980 0.001758
11738.87988 0.001775
11739.95020 0.001793
11741.03027 0.001815
11742.11035 0.001837
11743.17969 0.00186
11744.25977 0.001882
11745.33984 0.001904
11746.41016 0.001925
11747.49023 0.001947
11748.57031 0.001968
11749.65039 0.001989
11750.71973 0.002009
11751.79980 0.002029
11752.87988 0.002048
11753.95996 0.002068
11755.03027 0.002088
11756.11035 0.002115
11757.19043 0.002142
11758.26953 0.002169
11759.34961 0.002197
11760.41992 0.002224
11761.50000 0.00225
11762.58008 0.002277
11763.66016 0.002304
11764.74023 0.002331
11765.82031 0.002359
11766.90039 0.002387
11767.96973 0.002415
11769.04980 0.002443
11770.12988 0.002471
11771.20996 0.002499
11772.29004 0.002527
11773.37012 0.002555
11774.45020 0.002583
11775.53027 0.00261
11776.61035 0.002638
11777.69043 0.002665
11778.76953 0.002693
11779.84961 0.00272
11780.92969 0.002747
11782.00977 0.002774
11783.08984 0.002801
11784.16992 0.002829
11785.25000 0.002857
11786.33008 0.002891
11787.41016 0.002925
11788.49023 0.002959
11789.57031 0.002993
11790.66016 0.003026
11791.74023 0.003059
11792.82031 0.003091
11793.90039 0.003123
11794.98047 0.003155
11796.05957 0.003191
11797.13965 0.003226
11798.21973 0.003262
11799.30957 0.003297
11800.38965 0.003332
11801.46973 0.003365
11802.54980 0.003398
11803.62988 0.003431
11804.71973 0.003464
11805.79980 0.003499
11806.87988 0.003534
11807.95996 0.00357
11809.04980 0.003606
11810.12988 0.003642
11811.20996 0.003683
11812.29980 0.003724
11813.37988 0.003764
11814.45996 0.003805
11815.54980 0.003844
11816.62988 0.003881
11817.70996 0.003919
11818.79980 0.003956
11819.87988 0.003994
11820.95996 0.004037
11822.04980 0.00408
11823.12988 0.004123
11824.21973 0.004167
11825.29980 0.00421
11826.37988 0.004252
11827.46973 0.004295
11828.54980 0.004337
11829.63965 0.00438
11830.71973 0.004424
11831.80957 0.004469
11832.88965 0.004514
11833.98047 0.004559
11835.05957 0.004604
11836.15039 0.004654
11837.23047 0.004704
11838.32031 0.004754
11839.40039 0.004805
11840.49023 0.004855
11841.57031 0.004906
11842.66016 0.004957
11843.75000 0.005008
11844.83008 0.005059
11845.91992 0.005112
11847.00000 0.005164
11848.08984 0.005217
11849.17969 0.005269
11850.25977 0.005323
11851.34961 0.005378
11852.44043 0.005433
11853.51953 0.005488
11854.61035 0.005543
11855.70020 0.005601
11856.79004 0.005661
11857.87012 0.00572
11858.95996 0.005779
11860.04980 0.005839
11861.12988 0.005902
11862.21973 0.005965
11863.30957 0.006029
11864.40039 0.006092
11865.49023 0.006155
11866.57031 0.006216
11867.66016 0.006278
11868.75000 0.00634
11869.83984 0.006402
11870.92969 0.006475
11872.00977 0.006549
11873.09961 0.006624
11874.19043 0.006699
11875.28027 0.006773
11876.37012 0.006845
11877.45996 0.006916
11878.54980 0.006988
11879.63965 0.007059
11880.73047 0.007139
11881.82031 0.007223
11882.90039 0.007307
11883.99023 0.007392
11885.08008 0.007476
11886.16992 0.007564
11887.25977 0.007652
11888.34961 0.00774
11889.44043 0.007828
11890.53027 0.007919
11891.62012 0.008012
11892.70996 0.008105
11893.79980 0.008198
11894.90039 0.008291
11895.99023 0.00839
11897.08008 0.00849
11898.16992 0.00859
11899.25977 0.00869
11900.34961 0.008791
11901.44043 0.008895
11902.53027 0.008998
11903.62012 0.009102
11904.70996 0.009205
11905.80957 0.009318
11906.90039 0.009433
11907.99023 0.009549
11909.08008 0.009665
11910.16992 0.009783
11911.26953 0.009913
11912.36035 0.010044
11913.45020 0.010175
11914.54004 0.010306
11915.62988 0.01044
11916.73047 0.010577
11917.82031 0.010713
11918.91016 0.01085
11920.00977 0.010987
11921.09961 0.011139
11922.19043 0.011291
11923.29004 0.011442
11924.37988 0.011594
11925.46973 0.011751
11926.57031 0.011916
11927.66016 0.012081
11928.75000 0.012245
11929.84961 0.01241
11930.94043 0.012579
11932.03027 0.012748
11933.12988 0.012917
11934.21973 0.013086
11935.32031 0.013261
11936.41016 0.013447
11937.50977 0.013634
11938.59961 0.013821
11939.70020 0.014008
11940.79004 0.014209
11941.87988 0.014416
11942.98047 0.014624
11944.08008 0.014831
11945.16992 0.015042
11946.26953 0.015276
11947.36035 0.01551
11948.45996 0.015744
11949.54980 0.015978
11950.65039 0.016222
11951.74023 0.016473
11952.83984 0.016723
11953.92969 0.016974
11955.03027 0.017226
11956.12988 0.017505
11957.21973 0.017785
11958.32031 0.018065
11959.41992 0.018344
11960.50977 0.01863
11961.61035 0.018922
11962.70996 0.019215
11963.79980 0.019507
11964.90039 0.0198
11966.00000 0.020117
11967.08984 0.020437
11968.19043 0.020758
11969.29004 0.021078
11970.38965 0.021407
11971.48047 0.021754
11972.58008 0.0221
11973.67969 0.022447
11974.78027 0.022794
11975.87988 0.023178
11976.96973 0.023573
11978.07031 0.023967
11979.16992 0.024362
11980.26953 0.024766
11981.37012 0.025203
11982.46973 0.025639
11983.55957 0.026076
11984.66016 0.026513
11985.75977 0.026985
11986.86035 0.027471
11987.95996 0.027957
11989.05957 0.028443
11990.16016 0.028926
11991.25977 0.029383
11992.36035 0.02984
11993.45996 0.030298
11994.55957 0.030755
11995.66016 0.031263
11996.75977 0.031806
11997.86035 0.032348
11998.95996 0.03289
12000.05957 0.033435
12001.16016 0.034008
12002.25977 0.034581
12003.36035 0.035155
12004.45996 0.035728
12005.55957 0.036325
12006.66016 0.036946
12007.75977 0.037566
12008.86035 0.038186
12009.95996 0.038807
12011.07031 0.039496
12012.16992 0.040187
12013.26953 0.040879
12014.37012 0.04157
12015.46973 0.042294
12016.57031 0.043061
12017.66992 0.043829
12018.78027 0.044596
12019.87988 0.045363
12020.98047 0.046124
12022.08008 0.046885
12023.19043 0.047645
12024.29004 0.048405
12025.38965 0.049183
12026.49023 0.049993
12027.59961 0.050803
12028.70020 0.051612
12029.79980 0.052422
12030.90039 0.053233
12032.00977 0.054044
12033.11035 0.054854
12034.20996 0.055666
12035.32031 0.056498
12036.41992 0.05738
12037.51953 0.058263
12038.62988 0.059146
12039.73047 0.060029
12040.83984 0.06095
12041.94043 0.061885
12043.04004 0.062819
12044.15039 0.063754
12045.25000 0.064704
12046.36035 0.06571
12047.45996 0.066716
12048.57031 0.067721
12049.66992 0.068728
12050.78027 0.069726
12051.87988 0.070722
12052.99023 0.071718
12054.08984 0.072714
12055.20020 0.073703
12056.29980 0.074659
12057.41016 0.075615
12058.50977 0.076572
12059.62012 0.077528
12060.71973 0.078489
12061.83008 0.079453
12062.94043 0.080417
12064.04004 0.081382
12065.15039 0.082342
12066.25000 0.083279
12067.36035 0.084216
12068.46973 0.085153
12069.57031 0.08609
12070.67969 0.087055
12071.79004 0.088035
12072.88965 0.089015
12074.00000 0.089997
12075.11035 0.090978
12076.21973 0.091963
12077.32031 0.092948
12078.42969 0.093934
12079.54004 0.094919
12080.65039 0.095849
12081.75000 0.096739
12082.86035 0.097628
12083.96973 0.098519
12085.08008 0.099405
12086.19043 0.100252
12087.29004 0.101099
12088.40039 0.101945
12089.50977 0.102792
12090.62012 0.103602
12091.73047 0.104383
12092.83984 0.105163
12093.95020 0.105945
12095.04980 0.106723
12096.16016 0.107467
12097.26953 0.10821
12098.37988 0.108953
12099.49023 0.109697
12100.59961 0.110422
12101.70996 0.111132
12102.82031 0.111842
12103.92969 0.112552
12105.04004 0.113263
12106.15039 0.113965
12107.25977 0.114668
12108.37012 0.115371
12109.48047 0.116073
12110.58984 0.116739
12111.70020 0.117372
12112.80957 0.118004
12113.91992 0.118637
12115.03027 0.119267
12116.13965 0.119796
12117.25000 0.120325
12118.37012 0.120855
12119.48047 0.121384
12120.58984 0.121904
12121.70020 0.122418
12122.80957 0.122932
12123.91992 0.123445
12125.03027 0.123957
12126.15039 0.124395
12127.25977 0.124832
12128.37012 0.12527
12129.48047 0.125708
12130.58984 0.12613
12131.70996 0.126538
12132.82031 0.126946
12133.92969 0.127354
12135.04004 0.127762
12136.16016 0.128166
12137.26953 0.128569
12138.37988 0.128973
12139.49023 0.129376
12140.61035 0.129762
12141.71973 0.130134
12142.83008 0.130505
12143.95020 0.130877
12145.05957 0.131246
12146.16992 0.13157
12147.29004 0.131894
12148.40039 0.132219
12149.51953 0.132543
12150.62988 0.132837
12151.74023 0.133107
12152.86035 0.133377
12153.96973 0.133647
12155.08984 0.133917
12156.20020 0.134189
12157.32031 0.134461
12158.42969 0.134734
12159.54980 0.135006
12160.66016 0.135254
12161.78027 0.135487
12162.88965 0.135718
12164.00977 0.135951
12165.12012 0.136182
12166.24023 0.136405
12167.34961 0.136628
12168.46973 0.136851
12169.58008 0.137074
12170.70020 0.137282
12171.82031 0.13748
12172.92969 0.137679
12174.04980 0.137877
12175.16016 0.138074
12176.28027 0.138263
12177.40039 0.138453
12178.50977 0.138642
12179.62988 0.138832
12180.75000 0.138994
12181.86035 0.139143
12182.98047 0.139292
12184.09961 0.139441
12185.21973 0.139585
12186.33008 0.139703
12187.45020 0.139822
12188.57031 0.139941
12189.69043 0.14006
12190.79980 0.140172
12191.91992 0.140282
12193.04004 0.140391
12194.16016 0.140501
12195.26953 0.140605
12196.38965 0.140695
12197.50977 0.140785
12198.62988 0.140875
12199.75000 0.140965
12200.87012 0.141026
12201.99023 0.141079
12203.09961 0.141132
12204.21973 0.141184
12205.33984 0.141232
12206.45996 0.141266
12207.58008 0.141301
12208.70020 0.141335
12209.82031 0.14137
12210.94043 0.141369
12212.05957 0.141361
12213.17969 0.141354
12214.29980 0.141346
12215.41992 0.141332
12216.54004 0.141308
12217.66016 0.141283
12218.78027 0.141259
12219.90039 0.141234
12221.01953 0.141182
12222.13965 0.141126
12223.25977 0.141071
12224.37988 0.141016
12225.50000 0.140951
12226.62012 0.140873
12227.74023 0.140795
12228.87012 0.140716
12229.99023 0.140638
12231.11035 0.140533
12232.23047 0.140427
12233.34961 0.14032
12234.46973 0.140214
12235.58984 0.140088
12236.71973 0.139942
12237.83984 0.139796
12238.95996 0.139651
12240.08008 0.139505
12241.20996 0.139356
12242.33008 0.139208
12243.45020 0.139059
12244.57031 0.13891
12245.70020 0.138742
12246.82031 0.13856
12247.94043 0.138379
12249.05957 0.138198
12250.19043 0.138015
12251.30957 0.137823
12252.42969 0.137631
12253.55957 0.137439
12254.67969 0.137247
12255.80957 0.13703
12256.92969 0.136804
12258.04980 0.136578
12259.17969 0.136351
12260.29980 0.136126
12261.41992 0.135905
12262.54980 0.135683
12263.66992 0.135461
12264.79980 0.135239
12265.91992 0.134986
12267.04980 0.134727
12268.16992 0.134467
12269.29980 0.134208
12270.41992 0.133946
12271.54980 0.133682
12272.66992 0.133417
12273.79980 0.133152
12274.91992 0.132888
12276.04980 0.132648
12277.16992 0.132409
12278.29980 0.132171
12279.42969 0.131932
12280.54980 0.131661
12281.67969 0.131357
12282.79980 0.131052
12283.92969 0.130747
12285.05957 0.130446
12286.17969 0.130209
12287.30957 0.129973
12288.44043 0.129736
12289.55957 0.129499
12290.69043 0.129246
12291.82031 0.128982
12292.94043 0.128718
12294.07031 0.128454
12295.20020 0.12819
12296.33008 0.127921
12297.45020 0.127653
12298.58008 0.127385
12299.70996 0.127116
12300.83984 0.126858
12301.95996 0.126604
12303.08984 0.126349
12304.21973 0.126094
12305.34961 0.125847
12306.48047 0.125618
12307.61035 0.125388
12308.73047 0.125158
12309.86035 0.124928
12310.99023 0.124711
12312.12012 0.124496
12313.25000 0.124281
12314.37988 0.124066
12315.50977 0.123851
12316.63965 0.123635
12317.76953 0.123419
12318.90039 0.123203
12320.01953 0.122988
12321.15039 0.122781
12322.28027 0.122574
12323.41016 0.122367
12324.54004 0.122161
12325.66992 0.121967
12326.79980 0.121782
12327.92969 0.121596
12329.05957 0.121411
12330.20020 0.121225
12331.33008 0.121039
12332.45996 0.120853
12333.58984 0.120666
12334.71973 0.12048
12335.84961 0.120339
12336.98047 0.120214
12338.11035 0.120088
12339.24023 0.119963
12340.37012 0.119837
12341.50977 0.11971
12342.63965 0.119584
12343.76953 0.119457
12344.90039 0.119331
12346.03027 0.119228
12347.16992 0.119128
12348.29980 0.119028
12349.42969 0.118927
12350.55957 0.118832
12351.69043 0.118743
12352.83008 0.118653
12353.95996 0.118563
12355.08984 0.118475
12356.21973 0.118408
12357.36035 0.118341
12358.49023 0.118274
12359.62012 0.118207
12360.75977 0.118151
12361.88965 0.118101
12363.01953 0.118051
12364.16016 0.118001
12365.29004 0.117958
12366.42969 0.117936
12367.55957 0.117915
12368.69043 0.117894
12369.83008 0.117873
12370.95996 0.117864
12372.09961 0.117857
12373.23047 0.11785
12374.37012 0.117843
12375.50000 0.117847
12376.62988 0.117867
12377.76953 0.117888
12378.90039 0.117908
12380.04004 0.117928
12381.16992 0.11796
12382.30957 0.117993
12383.45020 0.118025
12384.58008 0.118058
12385.71973 0.118104
12386.84961 0.118159
12387.99023 0.118214
12389.12012 0.118268
12390.25977 0.118329
12391.40039 0.118408
12392.53027 0.118488
12393.66992 0.118568
12394.79980 0.118648
12395.94043 0.11874
12397.08008 0.118834
12398.20996 0.118929
12399.34961 0.119024
12400.49023 0.119121
12401.62012 0.11922
12402.75977 0.119319
12403.90039 0.119419
12405.04004 0.119519
12406.16992 0.119649
12407.30957 0.11978
12408.45020 0.11991
12409.58984 0.12004
12410.71973 0.120173
12411.86035 0.120308
12413.00000 0.120443
12414.13965 0.120578
12415.28027 0.120717
12416.41992 0.12087
12417.54980 0.121024
12418.69043 0.121177
12419.83008 0.12133
12420.96973 0.121504
12422.11035 0.12168
12423.25000 0.121857
12424.38965 0.122034
12425.53027 0.122214
12426.66992 0.122398
12427.80957 0.122582
12428.95020 0.122767
12430.08008 0.122951
12431.21973 0.123141
12432.36035 0.123331
12433.50000 0.12352
12434.63965 0.12371
12435.78027 0.123902
12436.91992 0.124095
12438.07031 0.124287
12439.20996 0.12448
12440.34961 0.124678
12441.49023 0.124885
12442.62988 0.125092
12443.76953 0.125299
12444.91016 0.125507
12446.04980 0.12572
12447.19043 0.125935
12448.33008 0.126149
12449.46973 0.126363
12450.62012 0.126583
12451.75977 0.126809
12452.90039 0.127036
12454.04004 0.127262
12455.17969 0.127487
12456.33008 0.127707
12457.46973 0.127926
12458.61035 0.128146
12459.75000 0.128366
12460.88965 0.128583
12462.04004 0.1288
12463.17969 0.129017
12464.32031 0.129233
12465.46973 0.129448
12466.61035 0.129659
12467.75000 0.129871
12468.88965 0.130083
12470.04004 0.130295
12471.17969 0.130518
12472.33008 0.130741
12473.46973 0.130964
12474.61035 0.131187
12475.75977 0.131395
12476.90039 0.131595
12478.04004 0.131795
12479.19043 0.131995
12480.33008 0.1322
12481.48047 0.132416
12482.62012 0.132632
12483.76953 0.132848
12484.91016 0.133065
12486.05957 0.133259
12487.20020 0.133451
12488.33984 0.133644
12489.49023 0.133836
12490.63965 0.134025
12491.78027 0.13421
12492.92969 0.134395
12494.07031 0.13458
12495.21973 0.134764
12496.36035 0.134943
12497.50977 0.135122
12498.65039 0.135302
12499.79980 0.135481
12500.95020 0.135643
12502.08984 0.135802
12503.24023 0.13596
12504.38965 0.136118
12505.53027 0.136272
12506.67969 0.13642
12507.83008 0.136568
12508.96973 0.136716
12510.12012 0.136863
12511.26953 0.136999
12512.41016 0.137136
12513.55957 0.137272
12514.70996 0.137408
12515.86035 0.137544
12517.00000 0.137681
12518.15039 0.137818
12519.29980 0.137954
12520.45020 0.138078
12521.59961 0.138183
12522.74023 0.138288
12523.88965 0.138393
12525.04004 0.138497
12526.19043 0.138596
12527.33984 0.138694
12528.49023 0.138792
12529.62988 0.13889
12530.78027 0.138975
12531.92969 0.139053
12533.08008 0.139132
12534.23047 0.139211
12535.37988 0.139285
12536.53027 0.139351
12537.67969 0.139416
12538.83008 0.139482
12539.98047 0.139548
12541.12988 0.139605
12542.28027 0.139662
12543.42969 0.13972
12544.58008 0.139777
12545.73047 0.139826
12546.87988 0.139871
12548.03027 0.139915
12549.17969 0.13996
12550.33008 0.14
12551.48047 0.140029
12552.62988 0.140058
12553.78027 0.140087
12554.92969 0.140116
12556.08008 0.140131
12557.24023 0.140144
12558.38965 0.140157
12559.54004 0.140171
12560.69043 0.140184
12561.83984 0.140197
12563.00000 0.140209
12564.15039 0.140222
12565.29980 0.140232
12566.45020 0.140232
12567.59961 0.140232
12568.75977 0.140232
12569.91016 0.140232
12571.05957 0.140224
12572.20996 0.140216
12573.37012 0.140209
12574.51953 0.140201
12575.66992 0.140191
12576.83008 0.14018
12577.98047 0.14017
12579.12988 0.140159
12580.29004 0.140144
12581.44043 0.140116
12582.58984 0.140088
12583.75000 0.140059
12584.90039 0.140031
12586.04980 0.140006
12587.20996 0.139982
12588.36035 0.139957
12589.51953 0.139933
12590.66992 0.139908
12591.83008 0.139882
12592.98047 0.139856
12594.12988 0.139831
12595.29004 0.139804
12596.44043 0.139773
12597.59961 0.139742
12598.75000 0.139711
12599.91016 0.139681
12601.05957 0.139642
12602.21973 0.139603
12603.37988 0.139564
12604.53027 0.139524
12605.69043 0.139493
12606.83984 0.139466
12608.00000 0.139439
12609.15039 0.139412
12610.30957 0.139382
12611.46973 0.139344
12612.62012 0.139306
12613.78027 0.139267
12614.94043 0.139229
12616.08984 0.139194
12617.25000 0.139158
12618.41016 0.139123
12619.55957 0.139088
12620.71973 0.139048
12621.87988 0.139005
12623.04004 0.138963
12624.19043 0.13892
12625.34961 0.138882
12626.50977 0.138853
12627.66992 0.138824
12628.82031 0.138795
12629.98047 0.138766
12631.13965 0.13874
12632.29980 0.138714
12633.45996 0.138688
12634.61035 0.138662
12635.76953 0.138629
12636.92969 0.138594
12638.08984 0.138558
12639.25000 0.138523
12640.41016 0.13849
12641.57031 0.138463
12642.73047 0.138435
12643.88965 0.138408
12645.04004 0.138381
12646.20020 0.13836
12647.36035 0.138339
12648.51953 0.138318
12649.67969 0.138297
12650.83984 0.138275
12652.00000 0.138254
12653.16016 0.138233
12654.32031 0.138212
12655.48047 0.138194
12656.63965 0.138179
12657.79980 0.138165
12658.96973 0.138151
12660.12988 0.138136
12661.29004 0.138117
12662.45020 0.138098
12663.61035 0.138078
12664.76953 0.138059
12665.92969 0.138042
12667.08984 0.138027
12668.25000 0.138012
12669.41992 0.137997
12670.58008 0.137982
12671.74023 0.137967
12672.90039 0.137953
12674.05957 0.137938
12675.23047 0.137924
12676.38965 0.137909
12677.54980 0.137895
12678.70996 0.13788
12679.87012 0.137866
12681.04004 0.137859
12682.20020 0.137852
12683.36035 0.137846
12684.53027 0.137839
12685.69043 0.137838
12686.84961 0.137841
12688.01953 0.137843
12689.17969 0.137846
12690.33984 0.137846
12691.50977 0.137838
12692.66992 0.13783
12693.83008 0.137822
12695.00000 0.137814
12696.16016 0.137803
12697.33008 0.137792
12698.49023 0.13778
12699.65039 0.137769
12700.82031 0.137762
12701.98047 0.137757
12703.15039 0.137752
12704.30957 0.137747
12705.48047 0.137737
12706.63965 0.13772
12707.80957 0.137703
12708.96973 0.137686
12710.13965 0.13767
12711.29980 0.137663
12712.46973 0.137657
12713.62988 0.137651
12714.79980 0.137645
12715.96973 0.137635
12717.12988 0.137624
12718.29980 0.137614
12719.45996 0.137603
12720.62988 0.137596
12721.79980 0.13759
12722.95996 0.137585
12724.12988 0.13758
12725.29980 0.137575
12726.45996 0.137571
12727.62988 0.137567
12728.79980 0.137563
12729.95996 0.137559
12731.12988 0.137545
12732.29980 0.137531
12733.46973 0.137517
12734.62988 0.137503
12735.79980 0.137488
12736.96973 0.137472
12738.13965 0.137457
12739.30957 0.137442
12740.46973 0.137429
12741.63965 0.137419
12742.80957 0.137409
12743.98047 0.1374
12745.15039 0.137389
12746.32031 0.137374
12747.49023 0.137359
12748.65039 0.137344
12749.82031 0.137329
12750.99023 0.137313
12752.16016 0.137298
12753.33008 0.137282
12754.50000 0.137267
12755.66992 0.137252
12756.83984 0.137238
12758.00977 0.137224
12759.17969 0.13721
12760.34961 0.137193
12761.51953 0.13717
12762.69043 0.137148
12763.86035 0.137125
12765.03027 0.137102
12766.20020 0.137074
12767.37012 0.137047
12768.54004 0.13702
12769.70996 0.136993
12770.87988 0.136968
12772.04980 0.136944
12773.21973 0.13692
12774.40039 0.136896
12775.57031 0.136872
12776.74023 0.136849
12777.91016 0.136826
12779.08008 0.136803
12780.25000 0.136778
12781.41992 0.136746
12782.59961 0.136714
12783.76953 0.136682
12784.94043 0.136651
12786.11035 0.136631
12787.29004 0.136613
12788.45996 0.136594
12789.62988 0.136575
12790.79980 0.136545
12791.98047 0.13651
12793.15039 0.136474
12794.32031 0.136439
12795.50000 0.136412
12796.66992 0.136397
12797.83984 0.136382
12799.01953 0.136366
12800.19043 0.136349
12801.36035 0.136323
12802.54004 0.136297
12803.70996 0.136271
12804.87988 0.136245
12806.05957 0.136224
12807.23047 0.136204
12808.41016 0.136183
12809.58008 0.136163
12810.75977 0.136145
12811.92969 0.136129
12813.11035 0.136113
12814.28027 0.136097
12815.45996 0.136077
12816.62988 0.136052
12817.80957 0.136026
12818.98047 0.136001
12820.16016 0.135978
12821.33008 0.135964
12822.50977 0.135951
12823.67969 0.135937
12824.86035 0.135923
12826.04004 0.135914
12827.20996 0.135905
12828.38965 0.135896
12829.55957 0.135887
12830.74023 0.135869
12831.91992 0.135846
12833.08984 0.135822
12834.26953 0.135799
12835.45020 0.135783
12836.62012 0.135779
12837.79980 0.135775
12838.98047 0.135771
12840.16016 0.135767
12841.33008 0.135756
12842.50977 0.135746
12843.69043 0.135736
12844.87012 0.135725
12846.04004 0.135723
12847.21973 0.135721
12848.40039 0.135719
12849.58008 0.135717
12850.75000 0.135713
12851.92969 0.135707
12853.11035 0.1357
12854.29004 0.135694
12855.46973 0.135689
12856.65039 0.135687
12857.83008 0.135685
12859.00977 0.135683
12860.17969 0.135682
12861.36035 0.135685
12862.54004 0.135689
12863.71973 0.135693
12864.90039 0.135697
12866.08008 0.135711
12867.25977 0.135725
12868.44043 0.135739
12869.62012 0.135754
12870.79980 0.135766
12871.98047 0.135776
12873.16016 0.135786
12874.33984 0.135797
12875.51953 0.135809
12876.70020 0.135823
12877.87988 0.135837
12879.05957 0.135851
12880.25000 0.135868
12881.42969 0.135898
12882.61035 0.135928
12883.79004 0.135958
12884.96973 0.135988
12886.15039 0.136008
12887.33008 0.136029
12888.50977 0.136049
12889.70020 0.13607
12890.87988 0.136097
12892.05957 0.136126
12893.24023 0.136156
12894.41992 0.136185
12895.61035 0.136218
12896.79004 0.136253
12897.96973 0.13629
12899.16016 0.136325
12900.33984 0.136358
12901.51953 0.136385
12902.70020 0.136412
12903.88965 0.136438
12905.07031 0.136465
12906.25000 0.136499
12907.44043 0.136533
12908.62012 0.136567
12909.79980 0.136601
12910.99023 0.136636
12912.16992 0.136672
12913.36035 0.136707
12914.54004 0.136742
12915.71973 0.136779
12916.91016 0.136818
12918.08984 0.136857
12919.28027 0.136896
12920.45996 0.136941
12921.65039 0.136997
12922.83008 0.137053
12924.01953 0.137109
12925.20020 0.137161
12926.38965 0.137197
12927.57031 0.137233
12928.75977 0.137268
12929.94043 0.137304
12931.12988 0.137357
12932.30957 0.137411
12933.50000 0.137465
12934.67969 0.137518
12935.87012 0.137565
12937.05957 0.137608
12938.24023 0.137651
12939.42969 0.137695
12940.62012 0.137743
12941.79980 0.137797
12942.99023 0.137851
12944.17969 0.137905
12945.36035 0.137957
12946.54980 0.138006
12947.74023 0.138054
12948.91992 0.138103
12950.11035 0.138153
12951.29980 0.138206
12952.49023 0.138259
12953.66992 0.138312
12954.86035 0.138365
12956.04980 0.138417
12957.24023 0.138469
12958.42969 0.138521
12959.61035 0.138573
12960.79980 0.13863
12961.99023 0.138688
12963.17969 0.138746
12964.37012 0.138805
12965.55957 0.138856
12966.75000 0.1389
12967.92969 0.138944
12969.12012 0.138988
12970.30957 0.139031
12971.50000 0.139072
12972.69043 0.139114
12973.87988 0.139155
12975.07031 0.139197
12976.25977 0.139252
12977.45020 0.139307
12978.63965 0.139363
12979.83008 0.139418
12981.01953 0.139451
12982.20996 0.139481
12983.40039 0.13951
12984.58984 0.13954
12985.78027 0.139575
12986.96973 0.139614
12988.16016 0.139653
12989.34961 0.139692
12990.54004 0.139731
12991.74023 0.13977
12992.92969 0.13981
12994.12012 0.139849
12995.30957 0.139884
12996.50000 0.139905
12997.69043 0.139927
12998.88965 0.139949
13000.08008 0.139973
13001.26953 0.140029
13002.45996 0.140084
13003.65039 0.14014
13004.84961 0.140195
13006.04004 0.140266
13007.23047 0.14034
13008.41992 0.140413
13009.62012 0.140487
13010.80957 0.140535
13012.00000 0.140572
13013.20020 0.140608
13014.38965 0.140645
13015.58008 0.140691
13016.78027 0.140746
13017.96973 0.140802
13019.16016 0.140857
13020.36035 0.140906
13021.54980 0.140936
13022.74023 0.140967
13023.94043 0.140997
13025.12988 0.14103
13026.33008 0.141075
13027.51953 0.14112
13028.71973 0.141165
13029.91016 0.14121
13031.11035 0.141237
13032.29980 0.141262
13033.50000 0.141287
13034.69043 0.141312
13035.87988 0.141324
13037.08008 0.141331
13038.28027 0.141338
13039.46973 0.141345
13040.66992 0.141355
13041.86035 0.141368
13043.05957 0.141381
13044.25000 0.141394
13045.45020 0.141406
13046.65039 0.141414
13047.83984 0.141422
13049.04004 0.14143
13050.24023 0.141436
13051.42969 0.141434
13052.62988 0.141431
13053.83008 0.141429
13055.01953 0.141426
13056.21973 0.141415
13057.41992 0.141404
13058.61035 0.141393
13059.80957 0.141381
13061.00977 0.141368
13062.20996 0.141354
13063.40039 0.141341
13064.59961 0.141327
13065.79980 0.141305
13067.00000 0.14128
13068.20020 0.141255
13069.38965 0.14123
13070.58984 0.141206
13071.79004 0.141184
13072.99023 0.141161
13074.19043 0.141139
13075.38965 0.141114
13076.58984 0.141081
13077.79004 0.141047
13078.98047 0.141014
13080.17969 0.14098
13081.37988 0.140936
13082.58008 0.140893
13083.78027 0.140849
13084.98047 0.140806
13086.17969 0.140767
13087.37988 0.140729
13088.58008 0.14069
13089.78027 0.140651
13090.98047 0.140596
13092.17969 0.140536
13093.37988 0.140476
13094.58008 0.140416
13095.78027 0.140363
13096.99023 0.140314
13098.19043 0.140266
13099.38965 0.140217
13100.58984 0.140162
13101.79004 0.1401
13102.99023 0.140038
13104.19043 0.139976
13105.38965 0.139912
13106.58984 0.139843
13107.79980 0.139774
13109.00000 0.139705
13110.20020 0.139636
13111.40039 0.139564
13112.61035 0.139492
13113.80957 0.139421
13115.00977 0.139349
13116.20996 0.139261
13117.41992 0.139173
13118.62012 0.139084
13119.82031 0.138996
13121.01953 0.138916
13122.23047 0.138838
13123.42969 0.138759
13124.62988 0.13868
13125.83984 0.13861
13127.04004 0.138543
13128.24023 0.138476
13129.45020 0.138408
13130.65039 0.138332
13131.86035 0.138249
13133.05957 0.138165
13134.25977 0.138081
13135.46973 0.137998
13136.66992 0.137917
13137.87988 0.137836
13139.08008 0.137755
13140.29004 0.137674
13141.49023 0.137596
13142.70020 0.137517
13143.90039 0.137439
13145.11035 0.137359
13146.30957 0.13726
13147.51953 0.137161
13148.71973 0.137062
13149.92969 0.136963
13151.12988 0.136877
13152.33984 0.136791
13153.54980 0.136706
13154.75000 0.13662
13155.95996 0.136542
13157.16992 0.136467
13158.37012 0.136392
13159.58008 0.136317
13160.78027 0.136235
13161.99023 0.136151
13163.20020 0.136066
13164.41016 0.135981
13165.61035 0.135899
13166.82031 0.135819
13168.03027 0.13574
13169.23047 0.13566
13170.44043 0.135579
13171.65039 0.135496
13172.86035 0.135414
13174.05957 0.135331
13175.26953 0.135249
13176.48047 0.135169
13177.69043 0.135089
13178.90039 0.135008
13180.11035 0.134928
13181.30957 0.134849
13182.51953 0.13477
13183.73047 0.134691
13184.94043 0.134612
13186.15039 0.134525
13187.36035 0.134437
13188.57031 0.134349
13189.78027 0.134261
13190.99023 0.134191
13192.20020 0.134125
13193.41016 0.134058
13194.62012 0.133992
13195.83008 0.133924
13197.04004 0.133854
13198.25000 0.133785
13199.45996 0.133716
13200.66992 0.13365
13201.87988 0.133586
13203.08984 0.133522
13204.29980 0.133459
13205.50977 0.1334
13206.71973 0.13335
13207.92969 0.133299
13209.13965 0.133248
13210.34961 0.133195
13211.55957 0.13314
13212.76953 0.133084
13213.99023 0.133029
13215.20020 0.132973
13216.41016 0.132914
13217.62012 0.132855
13218.83008 0.132797
13220.04004 0.132738
13221.25977 0.132686
13222.46973 0.132634
13223.67969 0.132581
13224.88965 0.132529
13226.11035 0.132482
13227.32031 0.132435
13228.53027 0.132388
13229.75000 0.132341
13230.95996 0.132297
13232.16992 0.132254
13233.38965 0.132211
13234.59961 0.132168
13235.80957 0.132126
13237.03027 0.132084
13238.24023 0.132041
13239.45020 0.131999
13240.66992 0.131959
13241.87988 0.131921
13243.09961 0.131882
13244.30957 0.131844
13245.51953 0.131804
13246.74023 0.131763
13247.95020 0.131722
13249.16992 0.13168
13250.37988 0.131646
13251.59961 0.131627
13252.80957 0.131608
13254.03027 0.131589
13255.24023 0.131566
13256.45996 0.131525
13257.66992 0.131484
13258.88965 0.131443
13260.11035 0.131404
13261.32031 0.131379
13262.54004 0.131355
13263.75000 0.13133
13264.96973 0.131306
13266.19043 0.13129
13267.40039 0.131274
13268.62012 0.131259
13269.83984 0.131243
13271.04980 0.131216
13272.26953 0.131187
13273.49023 0.131158
13274.70020 0.131129
13275.91992 0.13111
13277.13965 0.131095
13278.36035 0.13108
13279.57031 0.131065
13280.79004 0.131048
13282.00977 0.13103
13283.23047 0.131013
13284.44043 0.130995
13285.66016 0.130978
13286.87988 0.130961
13288.09961 0.130943
13289.32031 0.130926
13290.54004 0.130916
13291.75000 0.130914
13292.96973 0.130912
13294.19043 0.130911
13295.41016 0.130912
13296.62988 0.13092
13297.84961 0.130929
13299.07031 0.130937
13300.29004 0.130942
13301.50977 0.130935
13302.73047 0.130929
13303.95020 0.130922
13305.16992 0.130915
13306.38965 0.130909
13307.61035 0.130903
13308.83008 0.130896
13310.04980 0.13089
13311.26953 0.130888
13312.49023 0.130887
13313.70996 0.130886
13314.92969 0.130884
13316.15039 0.13089
13317.37012 0.130897
13318.58984 0.130903
13319.80957 0.130909
13321.04004 0.130919
13322.25977 0.13093
13323.48047 0.130941
13324.70020 0.130951
13325.91992 0.130956
13327.13965 0.130959
13328.37012 0.130961
13329.58984 0.130964
13330.80957 0.130979
13332.03027 0.131
13333.25000 0.131021
13334.48047 0.131042
13335.70020 0.131064
13336.91992 0.131088
13338.15039 0.131112
13339.37012 0.131136
13340.58984 0.131154
13341.80957 0.131164
13343.04004 0.131175
13344.25977 0.131186
13345.49023 0.131209
13346.70996 0.13125
13347.92969 0.131291
13349.16016 0.131332
13350.37988 0.131369
13351.59961 0.131394
13352.83008 0.13142
13354.04980 0.131446
13355.28027 0.131473
13356.50000 0.131509
13357.73047 0.131544
13358.95020 0.13158
13360.17969 0.131616
13361.40039 0.13166
13362.62988 0.131703
13363.84961 0.131746
13365.08008 0.13179
13366.29980 0.131836
13367.53027 0.131883
13368.75000 0.131929
13369.98047 0.131975
13371.20996 0.132022
13372.42969 0.13207
13373.66016 0.132117
13374.87988 0.132164
13376.11035 0.132222
13377.33984 0.132282
13378.55957 0.132341
13379.79004 0.1324
13381.01953 0.13245
13382.24023 0.132499
13383.46973 0.132548
13384.70020 0.132597
13385.92969 0.13265
13387.15039 0.132704
13388.37988 0.132759
13389.61035 0.132814
13390.83984 0.132882
13392.05957 0.132957
13393.29004 0.133031
13394.51953 0.133106
13395.75000 0.133176
13396.98047 0.133242
13398.20996 0.133309
13399.42969 0.133376
13400.66016 0.133453
13401.88965 0.133538
13403.12012 0.133624
13404.34961 0.133709
13405.58008 0.133792
13406.80957 0.133871
13408.04004 0.133951
13409.26953 0.13403
13410.50000 0.134114
13411.71973 0.134207
13412.95996 0.1343
13414.17969 0.134393
13415.41016 0.134487
13416.63965 0.13458
13417.87012 0.134674
13419.11035 0.134768
13420.33984 0.134859
13421.57031 0.134941
13422.79980 0.135023
13424.03027 0.135106
13425.25977 0.135196
13426.49023 0.135313
13427.71973 0.13543
13428.95020 0.135547
13430.17969 0.135661
13431.41016 0.13576
13432.65039 0.135858
13433.87988 0.135956
13435.11035 0.136057
13436.33984 0.136175
13437.57031 0.136293
13438.80957 0.136411
13440.04004 0.136529
13441.26953 0.136648
13442.50000 0.136767
13443.74023 0.136885
13444.96973 0.137004
13446.20020 0.13713
13447.42969 0.137257
13448.66992 0.137383
13449.90039 0.13751
13451.12988 0.137628
13452.37012 0.137745
13453.59961 0.137863
13454.83008 0.13798
13456.07031 0.138115
13457.29980 0.138251
13458.54004 0.138388
13459.76953 0.138525
13461.00000 0.138655
13462.24023 0.138783
13463.46973 0.138911
13464.70996 0.139039
13465.94043 0.139185
13467.17969 0.139337
13468.41016 0.139489
13469.65039 0.139641
13470.87988 0.139783
13472.12012 0.139921
13473.34961 0.140059
13474.58984 0.140197
13475.82031 0.140339
13477.05957 0.140484
13478.29004 0.140628
13479.53027 0.140772
13480.75977 0.140917
13482.00000 0.141063
13483.24023 0.141209
13484.46973 0.141355
13485.70996 0.141502
13486.95020 0.141649
13488.17969 0.141795
13489.41992 0.141942
13490.66016 0.142101
13491.88965 0.142268
13493.12988 0.142436
13494.37012 0.142604
13495.61035 0.142766
13496.83984 0.14292
13498.08008 0.143075
13499.32031 0.14323
13500.55957 0.143382
13501.79004 0.143531
13503.03027 0.143681
13504.26953 0.143831
13505.50977 0.143985
13506.75000 0.144147
13507.99023 0.144309
13509.21973 0.144471
13510.45996 0.144631
13511.70020 0.14479
13512.94043 0.144949
13514.17969 0.145108
13515.41992 0.145268
13516.66016 0.145432
13517.90039 0.145597
13519.13965 0.145761
13520.37988 0.145923
13521.62012 0.146078
13522.86035 0.146234
13524.09961 0.14639
13525.33984 0.14655
13526.58008 0.146723
13527.82031 0.146895
13529.05957 0.147068
13530.29980 0.147239
13531.54004 0.147402
13532.78027 0.147566
13534.01953 0.147729
13535.25977 0.147892
13536.50000 0.148052
13537.74023 0.148211
13538.98047 0.148371
13540.23047 0.148532
13541.46973 0.148697
13542.70996 0.148861
13543.95020 0.149026
13545.19043 0.149191
13546.42969 0.149354
13547.67969 0.149517
13548.91992 0.149681
13550.16016 0.149844
13551.40039 0.150008
13552.65039 0.150171
13553.88965 0.150334
13555.12988 0.150498
13556.37012 0.150668
13557.62012 0.150838
13558.86035 0.151008
13560.09961 0.151177
13561.34961 0.151328
13562.58984 0.151479
13563.83008 0.151631
13565.08008 0.151782
13566.32031 0.151927
13567.57031 0.152072
13568.80957 0.152217
13570.04980 0.152362
13571.29980 0.152509
13572.54004 0.152655
13573.79004 0.152802
13575.03027 0.152948
13576.28027 0.15308
13577.51953 0.153213
13578.76953 0.153345
13580.00977 0.153478
13581.25977 0.153633
13582.50000 0.153787
13583.75000 0.153942
13584.99023 0.154097
13586.24023 0.154229
13587.48047 0.154362
13588.73047 0.154494
13589.98047 0.154627
13591.21973 0.154772
13592.46973 0.154917
13593.70996 0.155062
13594.95996 0.155207
13596.20996 0.155332
13597.45020 0.155457
13598.70020 0.155582
13599.95020 0.155707
13601.19043 0.155833
13602.44043 0.155959
13603.69043 0.156085
13604.94043 0.156211
13606.17969 0.156339
13607.42969 0.156468
13608.67969 0.156596
13609.92969 0.156725
13611.16992 0.156849
13612.41992 0.156973
13613.66992 0.157097
13614.91992 0.157221
13616.16992 0.157331
13617.41992 0.15744
13618.66992 0.15755
13619.91016 0.157659
13621.16016 0.157764
13622.41016 0.15787
13623.66016 0.157976
13624.91016 0.158081
13626.16016 0.158175
13627.41016 0.158268
13628.66016 0.158361
13629.91016 0.158454
13631.16016 0.158538
13632.41016 0.158622
13633.66016 0.158706
13634.91016 0.15879
13636.16016 0.158876
13637.41016 0.158962
13638.66016 0.159048
13639.91016 0.159134
13641.16016 0.159219
13642.41016 0.159303
13643.66016 0.159388
13644.91016 0.159473
13646.16016 0.159543
13647.41016 0.159613
13648.66992 0.159683
13649.91992 0.159752
13651.16992 0.159832
13652.41992 0.159913
13653.66992 0.159993
13654.91992 0.160074
13656.17969 0.160128
13657.42969 0.16018
13658.67969 0.160232
13659.92969 0.160283
13661.19043 0.16034
13662.44043 0.160397
13663.69043 0.160454
13664.94043 0.160511
13666.20020 0.16056
13667.45020 0.160608
13668.70020 0.160656
13669.95996 0.160705
13671.20996 0.160753
13672.45996 0.160802
13673.71973 0.160851
13674.96973 0.160899
13676.21973 0.160941
13677.48047 0.160982
13678.73047 0.161024
13679.99023 0.161065
13681.24023 0.161099
13682.50000 0.161133
13683.75000 0.161167
13685.00977 0.161202
13686.25977 0.16122
13687.51953 0.161238
13688.76953 0.161256
13690.03027 0.161274
13691.28027 0.161283
13692.54004 0.161293
13693.79004 0.161302
13695.04980 0.161311
13696.29980 0.161321
13697.55957 0.161331
13698.80957 0.16134
13700.07031 0.16135
13701.33008 0.161358
13702.58008 0.161366
13703.83984 0.161374
13705.09961 0.161382
13706.34961 0.161385
13707.61035 0.161388
13708.87012 0.161392
13710.12012 0.161395
13711.37988 0.161392
13712.63965 0.161389
13713.90039 0.161386
13715.15039 0.161382
13716.41016 0.161367
13717.66992 0.161352
13718.92969 0.161338
13720.17969 0.161323
13721.44043 0.161305
13722.70020 0.161288
13723.95996 0.161271
13725.21973 0.161255
13726.46973 0.161243
13727.73047 0.161231
13728.99023 0.161219
13730.25000 0.161204
13731.50977 0.161182
13732.76953 0.161159
13734.03027 0.161137
13735.29004 0.161113
13736.54980 0.161085
13737.80957 0.161057
13739.07031 0.161029
13740.33008 0.161001
13741.58984 0.16097
13742.84961 0.160939
13744.11035 0.160909
13745.37012 0.160879
13746.62988 0.160854
13747.88965 0.160828
13749.15039 0.160803
13750.41016 0.160777
13751.66992 0.16075
13752.92969 0.160723
13754.19043 0.160696
13755.45020 0.16067
13756.70996 0.160645
13757.96973 0.16062
13759.24023 0.160596
13760.50000 0.160571
13761.75977 0.160545
13763.01953 0.160519
13764.28027 0.160492
13765.54980 0.160466
13766.80957 0.160439
13768.07031 0.160412
13769.33008 0.160385
13770.59961 0.16036
13771.86035 0.160337
13773.12012 0.160315
13774.37988 0.160293
13775.65039 0.160283
13776.91016 0.160286
13778.16992 0.160289
13779.44043 0.160292
13780.70020 0.160273
13781.95996 0.160237
13783.23047 0.160201
13784.49023 0.160166
13785.75000 0.160148
13787.01953 0.160142
13788.28027 0.160136
13789.54980 0.160131
13790.80957 0.160125
13792.08008 0.160118
13793.33984 0.160112
13794.61035 0.160106
13795.87012 0.160095
13797.13965 0.160081
13798.40039 0.160068
13799.66992 0.160054
13800.92969 0.160064
13802.20020 0.160081
13803.45996 0.160099
13804.73047 0.160117
13805.99023 0.160117
13807.25977 0.160112
13808.53027 0.160108
13809.79004 0.160103
13811.05957 0.160107
13812.32031 0.160111
13813.58984 0.160116
13814.86035 0.160121
13816.12012 0.160133
13817.38965 0.160145
13818.66016 0.160157
13819.91992 0.160169
13821.19043 0.160184
13822.45996 0.1602
13823.73047 0.160215
13824.99023 0.160231
13826.25977 0.160256
13827.53027 0.160282
13828.79980 0.160308
13830.07031 0.160334
13831.33008 0.16036
13832.59961 0.160386
13833.87012 0.160411
13835.13965 0.160437
13836.41016 0.160459
13837.67969 0.16048
13838.95020 0.160502
13840.20996 0.160527
13841.48047 0.160561
13842.75000 0.160596
13844.01953 0.160631
13845.29004 0.160665
13846.55957 0.160697
13847.83008 0.160729
13849.09961 0.16076
13850.37012 0.160797
13851.63965 0.160845
13852.91016 0.160893
13854.17969 0.160942
13855.45020 0.160985
13856.71973 0.161018
13857.99023 0.161052
13859.25977 0.161085
13860.53027 0.161126
13861.79980 0.161177
13863.07031 0.161229
13864.34961 0.16128
13865.62012 0.161328
13866.88965 0.161371
13868.16016 0.161413
13869.42969 0.161456
13870.70020 0.161502
13871.96973 0.161551
13873.25000 0.1616
13874.51953 0.161648
13875.79004 0.161696
13877.05957 0.161743
13878.33984 0.16179
13879.61035 0.161837
13880.87988 0.161891
13882.15039 0.161949
13883.42969 0.162006
13884.70020 0.162063
13885.96973 0.162117
13887.25000 0.162169
13888.51953 0.162222
13889.79004 0.162275
13891.07031 0.162328
13892.33984 0.162382
13893.61035 0.162435
13894.88965 0.162489
13896.16016 0.16254
13897.44043 0.16259
13898.70996 0.162641
13899.98047 0.162691
13901.25977 0.162744
13902.53027 0.162797
13903.80957 0.16285
13905.08008 0.162903
13906.36035 0.162963
13907.62988 0.163023
13908.91016 0.163084
13910.17969 0.163145
13911.45996 0.163211
13912.74023 0.163278
13914.00977 0.163344
13915.29004 0.163408
13916.55957 0.163461
13917.83984 0.163515
13919.12012 0.163569
13920.38965 0.163623
13921.66992 0.16368
13922.94043 0.163737
13924.21973 0.163794
13925.50000 0.163853
13926.76953 0.163914
13928.04980 0.163976
13929.33008 0.164037
13930.61035 0.164095
13931.87988 0.164147
13933.16016 0.1642
13934.44043 0.164253
13935.71973 0.1643
13936.99023 0.164344
13938.26953 0.164387
13939.54980 0.16443
13940.83008 0.164487
13942.11035 0.164551
13943.37988 0.164615
13944.66016 0.164679
13945.94043 0.164727
13947.21973 0.164769
13948.50000 0.164812
13949.78027 0.164854
13951.05957 0.164916
13952.33984 0.164981
13953.62012 0.165047
13954.88965 0.165113
13956.16992 0.16516
13957.45020 0.165205
13958.73047 0.165251
13960.00977 0.165297
13961.29004 0.165343
13962.57031 0.16539
13963.84961 0.165437
13965.12988 0.165484
13966.41992 0.165537
13967.70020 0.165589
13968.98047 0.165642
13970.25977 0.165691
13971.54004 0.165729
13972.82031 0.165767
13974.09961 0.165805
13975.37988 0.165843
13976.66016 0.165881
13977.95020 0.165919
13979.23047 0.165957
13980.50977 0.165997
13981.79004 0.166041
13983.07031 0.166085
13984.34961 0.166129
13985.63965 0.166174
13986.91992 0.166221
13988.20020 0.166268
13989.48047 0.166315
13990.76953 0.166351
13992.04980 0.166379
13993.33008 0.166408
13994.62012 0.166436
13995.90039 0.166487
13997.17969 0.166547
13998.46973 0.166608
13999.75000 0.166668
14001.03027 0.166688
14002.32031 0.166699
14003.59961 0.166709
14004.87988 0.16672
14006.16992 0.166743
14007.45020 0.166768
14008.74023 0.166793
14010.01953 0.166818
14011.30957 0.166836
14012.58984 0.166855
14013.87988 0.166874
14015.16016 0.166893
14016.45020 0.16692
14017.73047 0.166948
14019.01953 0.166975
14020.29980 0.167002
14021.58984 0.16703
14022.87012 0.167057
14024.16016 0.167084
14025.45020 0.167108
14026.73047 0.167123
14028.01953 0.167139
14029.29980 0.167154
14030.58984 0.167179
14031.87988 0.167214
14033.16016 0.167249
14034.45020 0.167284
14035.74023 0.167304
14037.01953 0.167311
14038.30957 0.167318
14039.59961 0.167325
14040.88965 0.167346
14042.16992 0.167374
14043.45996 0.167401
14044.75000 0.167428
14046.04004 0.167459
14047.32031 0.167491
14048.61035 0.167522
14049.90039 0.167554
14051.19043 0.167581
14052.48047 0.167607
14053.76953 0.167633
14055.04980 0.167659
14056.33984 0.167678
14057.62988 0.167698
14058.91992 0.167717
14060.20996 0.167738
14061.50000 0.167765
14062.79004 0.167793
14064.08008 0.16782
14065.37012 0.167848
14066.66016 0.167877
14067.95020 0.167906
14069.24023 0.167934
14070.53027 0.167962
14071.82031 0.167987
14073.11035 0.168013
14074.40039 0.168038
14075.69043 0.168062
14076.98047 0.168085
14078.26953 0.168108
14079.55957 0.168131
14080.84961 0.168158
14082.13965 0.168186
14083.42969 0.168215
14084.71973 0.168243
14086.01953 0.168277
14087.30957 0.168313
14088.59961 0.168348
14089.88965 0.168383
14091.17969 0.168417
14092.48047 0.168451
14093.76953 0.168485
14095.05957 0.168518
14096.34961 0.168547
14097.63965 0.168575
14098.94043 0.168604
14100.23047 0.168634
14101.51953 0.168671
14102.82031 0.168709
14104.11035 0.168746
14105.40039 0.168783
14106.70020 0.168819
14107.99023 0.168854
14109.28027 0.168889
14110.58008 0.168924
14111.87012 0.168956
14113.16016 0.168989
14114.45996 0.169021
14115.75000 0.169053
14117.04980 0.169085
14118.33984 0.169116
14119.63965 0.169148
14120.92969 0.169188
14122.23047 0.169232
14123.51953 0.169275
14124.82031 0.169319
14126.11035 0.169358
14127.41016 0.169396
14128.70020 0.169434
14130.00000 0.169473
14131.29004 0.169515
14132.58984 0.169557
14133.87988 0.169599
14135.17969 0.16964
14136.48047 0.169676
14137.76953 0.169712
14139.07031 0.169748
14140.37012 0.169785
14141.66016 0.169825
14142.95996 0.169865
14144.25000 0.169904
14145.54980 0.169945
14146.84961 0.169988
14148.15039 0.170031
14149.44043 0.170073
14150.74023 0.170113
14152.04004 0.170152
14153.33984 0.17019
14154.62988 0.170229
14155.92969 0.170267
14157.23047 0.170307
14158.53027 0.170346
14159.83008 0.170385
14161.12012 0.170429
14162.41992 0.170475
14163.71973 0.17052
14165.01953 0.170565
14166.32031 0.170606
14167.62012 0.170647
14168.91992 0.170688
14170.21973 0.170729
14171.51953 0.170771
14172.80957 0.170813
14174.11035 0.170855
14175.41016 0.170899
14176.70996 0.170944
14178.00977 0.17099
14179.30957 0.171036
14180.61035 0.171075
14181.91016 0.171107
14183.20996 0.171139
14184.50977 0.171172
14185.82031 0.171213
14187.12012 0.17126
14188.41992 0.171307
14189.71973 0.171353
14191.01953 0.171395
14192.32031 0.171435
14193.62012 0.171475
14194.91992 0.171515
14196.21973 0.171542
14197.53027 0.171569
14198.83008 0.171595
14200.12988 0.171623
14201.42969 0.171672
14202.73047 0.17172
14204.04004 0.171768
14205.33984 0.171809
14206.63965 0.171827
14207.94043 0.171845
14209.25000 0.171864
14210.54980 0.171889
14211.84961 0.171923
14213.16016 0.171958
14214.45996 0.171993
14215.75977 0.172024
14217.07031 0.172054
14218.37012 0.172084
14219.66992 0.172113
14220.98047 0.172138
14222.28027 0.172162
14223.58008 0.172187
14224.88965 0.172211
14226.19043 0.172241
14227.50000 0.172273
14228.79980 0.172304
14230.11035 0.172334
14231.41016 0.172342
14232.71973 0.172351
14234.01953 0.172359
14235.33008 0.172369
14236.62988 0.172383
14237.94043 0.172397
14239.24023 0.172411
14240.54980 0.172429
14241.84961 0.172452
14243.16016 0.172475
14244.46973 0.172499
14245.76953 0.172507
14247.08008 0.172505
14248.38965 0.172503
14249.69043 0.172501
14251.00000 0.172502
14252.29980 0.172505
14253.61035 0.172508
14254.91992 0.172511
14256.23047 0.172519
14257.53027 0.172526
14258.83984 0.172534
14260.15039 0.172541
14261.45996 0.172537
14262.75977 0.172533
14264.07031 0.172528
14265.37988 0.172524
14266.69043 0.172518
14268.00000 0.172513
14269.29980 0.172508
14270.61035 0.1725
14271.91992 0.172491
14273.23047 0.172481
14274.54004 0.172472
14275.84961 0.172458
14277.16016 0.17244
14278.45996 0.172423
14279.76953 0.172406
14281.08008 0.17238
14282.38965 0.172351
14283.70020 0.172323
14285.00977 0.172295
14286.32031 0.172272
14287.62988 0.172249
14288.94043 0.172226
14290.25000 0.172199
14291.55957 0.172157
14292.87012 0.172115
14294.17969 0.172072
14295.49023 0.172037
14296.79980 0.172012
14298.12012 0.171988
14299.42969 0.171963
14300.74023 0.171929
14302.04980 0.171886
14303.36035 0.171845
14304.66992 0.171802
14305.98047 0.171751
14307.29004 0.171697
14308.61035 0.171642
14309.91992 0.171588
14311.23047 0.171544
14312.54004 0.171502
14313.86035 0.171459
14315.16992 0.171413
14316.48047 0.171345
14317.79004 0.171276
14319.11035 0.171208
14320.41992 0.171144
14321.73047 0.17109
14323.04980 0.171035
14324.36035 0.170981
14325.66992 0.170924
14326.99023 0.170864
14328.29980 0.170804
14329.61035 0.170744
14330.92969 0.17068
14332.24023 0.170614
14333.55957 0.170548
14334.87012 0.170483
14336.17969 0.170425
14337.50000 0.170369
14338.80957 0.170312
14340.12988 0.170254
14341.44043 0.170187
14342.75977 0.17012
14344.07031 0.170053
14345.38965 0.169983
14346.70020 0.169907
14348.01953 0.169831
14349.33008 0.169755
14350.65039 0.169679
14351.96973 0.169603
14353.28027 0.169528
14354.59961 0.169452
14355.91992 0.169375
14357.23047 0.169296
14358.54980 0.169218
14359.86035 0.169139
14361.17969 0.169061
14362.50000 0.168982
14363.80957 0.168904
14365.12988 0.168826
14366.45020 0.168751
14367.76953 0.168677
14369.08008 0.168603
14370.40039 0.168526
14371.71973 0.168444
14373.04004 0.168362
14374.34961 0.168279
14375.66992 0.168192
14376.99023 0.168101
14378.30957 0.16801
14379.62988 0.167919
14380.95020 0.167841
14382.25977 0.167769
14383.58008 0.167696
14384.90039 0.167624
14386.21973 0.167533
14387.54004 0.16744
14388.86035 0.167347
14390.17969 0.167257
14391.50000 0.167189
14392.82031 0.167121
14394.13965 0.167052
14395.45996 0.166984
14396.78027 0.166914
14398.09961 0.166844
14399.41992 0.166774
14400.74023 0.166696
14402.05957 0.166613
14403.37988 0.16653
14404.70020 0.166447
14406.01953 0.166382
14407.33984 0.166322
14408.66016 0.166262
14409.98047 0.166202
14411.29980 0.166121
14412.62988 0.166039
14413.95020 0.165957
14415.26953 0.165876
14416.58984 0.165797
14417.91016 0.165719
14419.23047 0.16564
14420.55957 0.165575
14421.87988 0.165527
14423.20020 0.165479
14424.51953 0.165431
14425.84961 0.165371
14427.16992 0.165305
14428.49023 0.165238
14429.82031 0.165171
14431.13965 0.165106
14432.45996 0.165042
14433.79004 0.164977
14435.11035 0.164914
14436.42969 0.164861
14437.75977 0.164808
14439.08008 0.164756
14440.40039 0.164699
14441.73047 0.164633
14443.04980 0.164568
14444.37988 0.164502
14445.70020 0.164447
14447.03027 0.164401
14448.34961 0.164355
14449.66992 0.164309
14451.00000 0.164262
14452.32031 0.164216
14453.65039 0.164169
14454.96973 0.164122
14456.29980 0.16408
14457.62988 0.164037
14458.95020 0.163995
14460.28027 0.163953
14461.59961 0.163913
14462.92969 0.163873
14464.25977 0.163834
14465.58008 0.163797
14466.91016 0.163764
14468.23047 0.163731
14469.55957 0.163698
14470.88965 0.163659
14472.20996 0.163618
14473.54004 0.163576
14474.87012 0.163535
14476.20020 0.163513
14477.51953 0.163493
14478.84961 0.163474
14480.17969 0.163454
14481.50977 0.163433
14482.83008 0.163412
14484.16016 0.16339
14485.49023 0.163369
14486.82031 0.163347
14488.15039 0.163325
14489.48047 0.163303
14490.79980 0.163302
14492.12988 0.163315
14493.45996 0.163328
14494.79004 0.163341
14496.12012 0.163332
14497.45020 0.16332
14498.78027 0.163307
14500.11035 0.163295
14501.44043 0.163281
14502.76953 0.163267
14504.09961 0.163252
14505.42969 0.163249
14506.75977 0.163267
14508.08984 0.163285
14509.41992 0.163303
14510.75000 0.163315
14512.08008 0.163322
14513.41016 0.163328
14514.74023 0.163335
14516.07031 0.163354
14517.40039 0.163375
14518.73047 0.163396
14520.05957 0.163417
14521.38965 0.163433
14522.73047 0.163448
14524.05957 0.163464
14525.38965 0.16348
14526.71973 0.163496
14528.04980 0.163513
14529.38965 0.163529
14530.71973 0.163553
14532.04980 0.163583
14533.37988 0.163613
14534.70996 0.163642
14536.04980 0.163677
14537.37988 0.163712
14538.70996 0.163747
14540.04980 0.163783
14541.37988 0.163827
14542.70996 0.16387
14544.04980 0.163914
14545.37988 0.163957
14546.70996 0.163998
14548.04980 0.164038
14549.37988 0.164079
14550.71973 0.164129
14552.04980 0.164186
14553.37988 0.164244
14554.71973 0.164302
14556.04980 0.164346
14557.38965 0.164385
14558.71973 0.164425
14560.05957 0.164466
14561.38965 0.164527
14562.73047 0.164587
14564.05957 0.164648
14565.40039 0.164706
14566.73047 0.164758
14568.07031 0.16481
14569.41016 0.164862
14570.74023 0.164923
14572.08008 0.16499
14573.41016 0.165056
14574.75000 0.165123
14576.08984 0.165188
14577.41992 0.165254
14578.75977 0.165319
14580.09961 0.165385
14581.42969 0.165462
14582.76953 0.165538
14584.11035 0.165615
14585.44043 0.165685
14586.78027 0.165742
14588.12012 0.165799
14589.45996 0.165856
14590.79004 0.165922
14592.12988 0.165993
14593.46973 0.166064
14594.80957 0.166136
14596.15039 0.166203
14597.49023 0.166269
14598.82031 0.166336
14600.16016 0.166403
14601.50000 0.166476
14602.83984 0.166548
14604.17969 0.166621
14605.51953 0.166695
14606.86035 0.16677
14608.20020 0.166845
14609.54004 0.16692
14610.87988 0.16699
14612.21973 0.167059
14613.55957 0.167128
14614.90039 0.167196
14616.24023 0.167269
14617.58008 0.167343
14618.91992 0.167416
14620.25977 0.167488
14621.59961 0.167552
14622.94043 0.167616
14624.28027 0.16768
14625.62012 0.167753
14626.95996 0.167838
14628.29980 0.167922
14629.63965 0.168006
14630.98047 0.168086
14632.33008 0.168164
14633.66992 0.168243
14635.00977 0.168321
14636.34961 0.168383
14637.69043 0.168444
14639.04004 0.168506
14640.37988 0.168575
14641.71973 0.168662
14643.05957 0.16875
14644.41016 0.168838
14645.75000 0.168914
14647.08984 0.16898
14648.42969 0.169046
14649.78027 0.169112
14651.12012 0.169178
14652.45996 0.169244
14653.80957 0.169311
14655.15039 0.169378
14656.50000 0.169449
14657.83984 0.16952
14659.17969 0.169591
14660.53027 0.169657
14661.87012 0.169717
14663.21973 0.169776
14664.55957 0.169835
14665.90039 0.169909
14667.25000 0.169991
14668.58984 0.170072
14669.94043 0.170154
14671.28027 0.170213
14672.62988 0.170272
14673.98047 0.170331
14675.32031 0.170389
14676.66992 0.170442
14678.00977 0.170496
14679.36035 0.170549
14680.70020 0.170604
14682.04980 0.170661
14683.40039 0.170717
14684.74023 0.170774
14686.08984 0.170834
14687.44043 0.170896
14688.78027 0.170958
14690.12988 0.171019
14691.48047 0.171076
14692.82031 0.171132
14694.16992 0.171188
14695.51953 0.171244
14696.87012 0.1713
14698.20996 0.171356
14699.55957 0.171411
14700.91016 0.171469
14702.25977 0.171527
14703.59961 0.171585
14704.95020 0.171644
14706.29980 0.171695
14707.65039 0.171746
14709.00000 0.171797
14710.34961 0.17185
14711.70020 0.171907
14713.04004 0.171965
14714.38965 0.172023
14715.74023 0.172079
14717.08984 0.172133
14718.44043 0.172187
14719.79004 0.172241
14721.13965 0.172279
14722.49023 0.172315
14723.83984 0.17235
14725.19043 0.172388
14726.54004 0.172438
14727.88965 0.172488
14729.24023 0.172538
14730.58984 0.172581
14731.94043 0.172614
14733.29004 0.172648
14734.63965 0.172681
14736.00000 0.172724
14737.34961 0.172769
14738.70020 0.172814
14740.04980 0.172859
14741.40039 0.172883
14742.75000 0.172907
14744.09961 0.172931
14745.45996 0.172955
14746.80957 0.172979
14748.16016 0.173004
14749.50977 0.173028
14750.87012 0.173063
14752.21973 0.173105
14753.57031 0.173147
14754.91992 0.173188
14756.28027 0.173198
14757.62988 0.173206
14758.98047 0.173213
14760.33984 0.173228
14761.69043 0.173266
14763.04004 0.173303
14764.40039 0.173341
14765.75000 0.173364
14767.09961 0.173376
14768.45996 0.173388
14769.80957 0.1734
14771.16992 0.173406
14772.51953 0.173411
14773.87988 0.173417
14775.23047 0.173427
14776.58008 0.173459
14777.94043 0.173491
14779.29004 0.173523
14780.65039 0.173539
14782.00977 0.173538
14783.36035 0.173536
14784.71973 0.173535
14786.07031 0.173543
14787.42969 0.173553
14788.78027 0.173564
14790.13965 0.173574
14791.50000 0.173583
14792.84961 0.173591
14794.20996 0.1736
14795.57031 0.173606
14796.91992 0.173609
14798.28027 0.173611
14799.63965 0.173614
14800.99023 0.173622
14802.34961 0.173632
14803.70996 0.173643
14805.05957 0.173652
14806.41992 0.173652
14807.78027 0.173651
14809.13965 0.17365
14810.50000 0.173651
14811.84961 0.173656
14813.20996 0.17366
14814.57031 0.173664
14815.92969 0.173648
14817.29004 0.173622
14818.63965 0.173596
14820.00000 0.173571
14821.36035 0.173572
14822.71973 0.173574
14824.08008 0.173575
14825.44043 0.173569
14826.79980 0.173547
14828.16016 0.173524
14829.51953 0.173502
14830.87988 0.173493
14832.24023 0.173492
14833.59961 0.173491
14834.95996 0.17349
14836.32031 0.173486
14837.67969 0.173481
14839.04004 0.173476
14840.40039 0.173466
14841.75977 0.173446
14843.12012 0.173425
14844.48047 0.173404
14845.83984 0.173391
14847.20996 0.173382
14848.57031 0.173373
14849.92969 0.173365
14851.29004 0.173359
14852.65039 0.173354
14854.00977 0.173349
14855.37012 0.173344
14856.74023 0.173338
14858.09961 0.173332
14859.45996 0.173326
14860.82031 0.173324
14862.19043 0.173326
14863.54980 0.173327
14864.91016 0.173329
14866.28027 0.173317
14867.63965 0.173304
14869.00000 0.173292
14870.37012 0.173281
14871.73047 0.173277
14873.08984 0.173273
14874.45996 0.173269
14875.82031 0.173261
14877.17969 0.17325
14878.54980 0.173238
14879.91016 0.173227
14881.28027 0.173222
14882.63965 0.173217
14884.00977 0.173213
14885.37012 0.173208
14886.74023 0.173203
14888.09961 0.173197
14889.46973 0.173192
14890.83008 0.173193
14892.20020 0.173199
14893.55957 0.173205
14894.92969 0.17321
14896.29004 0.173209
14897.66016 0.173208
14899.03027 0.173207
14900.38965 0.173202
14901.75977 0.173188
14903.12012 0.173173
14904.49023 0.173159
14905.86035 0.173152
14907.21973 0.173151
14908.58984 0.173149
14909.95996 0.173148
14911.33008 0.173171
14912.69043 0.173195
14914.05957 0.173219
14915.42969 0.173233
14916.79004 0.173227
14918.16016 0.173221
14919.53027 0.173215
14920.90039 0.173223
14922.26953 0.173237
14923.62988 0.173252
14925.00000 0.173267
14926.37012 0.173283
14927.74023 0.173298
14929.11035 0.173314
14930.48047 0.173327
14931.84961 0.173336
14933.21973 0.173344
14934.58008 0.173352
14935.95020 0.173368
14937.32031 0.173386
14938.69043 0.173404
14940.05957 0.173423
14941.42969 0.173438
14942.79980 0.173453
14944.16992 0.173468
14945.54004 0.173482
14946.91016 0.173496
14948.29004 0.17351
14949.66016 0.173523
14951.03027 0.173535
14952.40039 0.173546
14953.76953 0.173557
14955.13965 0.17357
14956.50977 0.1736
14957.87988 0.173631
14959.25000 0.173661
14960.62012 0.173688
14962.00000 0.173709
14963.37012 0.17373
14964.74023 0.173752
14966.11035 0.173762
14967.49023 0.17377
14968.86035 0.173778
14970.23047 0.173791
14971.59961 0.173835
14972.98047 0.173879
14974.34961 0.173923
14975.71973 0.173946
14977.08984 0.173949
14978.46973 0.173953
14979.83984 0.173956
14981.20996 0.173968
14982.58984 0.173982
14983.95996 0.173995
14985.33984 0.174017
14986.70996 0.174068
14988.08008 0.174118
14989.45996 0.174169
14990.83008 0.174202
14992.20996 0.174224
14993.58008 0.174245
14994.95996 0.174267
14996.33008 0.174292
14997.70996 0.174318
14999.08008 0.174343
15000.45996 0.174373
15001.83008 0.174411
15003.20996 0.174449
15004.58008 0.174487
15005.95996 0.174506
15007.33984 0.174518
15008.70996 0.174529
15010.08984 0.174542
15011.45996 0.174567
15012.83984 0.174593
15014.21973 0.174619
15015.58984 0.174647
15016.96973 0.174678
15018.34961 0.174709
15019.73047 0.17474
15021.09961 0.174756
15022.48047 0.174767
15023.86035 0.174779
15025.23047 0.174795
15026.61035 0.174834
15027.99023 0.174872
15029.37012 0.174911
15030.75000 0.174943
15032.12988 0.17497
15033.50000 0.174997
15034.87988 0.175024
15036.25977 0.175049
15037.63965 0.175073
15039.01953 0.175098
15040.40039 0.175127
15041.78027 0.175168
15043.15039 0.175209
15044.53027 0.17525
15045.91016 0.175271
15047.29004 0.175282
15048.66992 0.175293
15050.04980 0.175305
15051.42969 0.175343
15052.80957 0.175382
15054.19043 0.175421
15055.57031 0.175454
15056.95020 0.175481
15058.33008 0.175508
15059.70996 0.175536
15061.09961 0.175569
15062.48047 0.175604
15063.86035 0.17564
15065.24023 0.175673
15066.62012 0.175699
15068.00000 0.175725
15069.37988 0.175751
15070.76953 0.175789
15072.15039 0.175838
15073.53027 0.175887
15074.91016 0.175936
15076.29004 0.175952
15077.67969 0.175964
15079.05957 0.175977
15080.44043 0.175995
15081.82031 0.176025
15083.20996 0.176054
15084.58984 0.176084
15085.96973 0.176112
15087.36035 0.176141
15088.74023 0.17617
15090.12012 0.1762
15091.50977 0.176242
15092.88965 0.176285
15094.26953 0.176327
15095.66016 0.176361
15097.04004 0.176386
15098.42969 0.176411
15099.80957 0.176435
15101.20020 0.176471
15102.58008 0.176507
15103.96973 0.176544
15105.34961 0.176577
15106.74023 0.176601
15108.12012 0.176625
15109.50977 0.176649
15110.88965 0.176679
15112.28027 0.176711
15113.66016 0.176743
15115.04980 0.176775
15116.42969 0.176801
15117.82031 0.176827
15119.20996 0.176854
15120.58984 0.176883
15121.98047 0.176914
15123.37012 0.176946
15124.75000 0.176978
15126.13965 0.177028
15127.53027 0.177081
15128.91016 0.177135
15130.29980 0.177182
15131.69043 0.177205
15133.08008 0.177228
15134.45996 0.177251
15135.84961 0.17727
15137.24023 0.177287
15138.62988 0.177304
15140.00977 0.177321
15141.40039 0.177365
15142.79004 0.177408
15144.17969 0.177451
15145.57031 0.17749
15146.95996 0.177521
15148.34961 0.177552
15149.74023 0.177583
15151.12012 0.177622
15152.50977 0.177663
15153.90039 0.177703
15155.29004 0.177738
15156.67969 0.17775
15158.07031 0.177762
15159.45996 0.177774
15160.84961 0.177796
15162.24023 0.177824
15163.62988 0.177853
15165.01953 0.177881
15166.41016 0.17792
15167.79980 0.177958
15169.19043 0.177997
15170.58008 0.178027
15171.98047 0.178045
15173.37012 0.178064
15174.75977 0.178082
15176.15039 0.178116
15177.54004 0.178154
15178.92969 0.178192
15180.33008 0.178224
15181.71973 0.178238
15183.11035 0.178253
15184.50000 0.178267
15185.88965 0.178296
15187.29004 0.178334
15188.67969 0.178372
15190.07031 0.178409
15191.45996 0.178438
15192.86035 0.178468
15194.25000 0.178497
15195.63965 0.178522
15197.04004 0.178541
15198.42969 0.178561
15199.82031 0.17858
15201.21973 0.178607
15202.61035 0.178636
15204.00000 0.178664
15205.40039 0.178696
15206.79004 0.178739
15208.19043 0.178781
15209.58008 0.178823
15210.98047 0.178857
15212.37012 0.178886
15213.76953 0.178915
15215.16016 0.178943
15216.55957 0.178967
15217.95020 0.178992
15219.34961 0.179016
15220.74023 0.179053
15222.13965 0.179101
15223.53027 0.179148
15224.92969 0.179196
15226.33008 0.179218
15227.71973 0.179238
15229.12012 0.179258
15230.50977 0.179288
15231.91016 0.179335
15233.30957 0.179381
15234.70996 0.179427
15236.09961 0.179456
15237.50000 0.17948
15238.90039 0.179504
15240.29004 0.179527
15241.69043 0.179546
15243.08984 0.179565
15244.49023 0.179585
15245.87988 0.179616
15247.28027 0.179655
15248.67969 0.179693
15250.08008 0.179731
15251.48047 0.179753
15252.87012 0.179776
15254.26953 0.179798
15255.66992 0.179826
15257.07031 0.17986
15258.46973 0.179893
15259.87012 0.179927
15261.26953 0.179959
15262.66992 0.179991
15264.07031 0.180023
15265.46973 0.180045
15266.87012 0.180047
15268.26953 0.180049
15269.66992 0.180051
15271.07031 0.180079
15272.46973 0.180115
15273.87012 0.180151
15275.26953 0.180186
15276.66992 0.180221
15278.07031 0.180255
15279.46973 0.180289
15280.87012 0.180319
15282.26953 0.180345
15283.66992 0.18037
15285.07031 0.180396
15286.48047 0.180422
15287.87988 0.180448
15289.28027 0.180474
15290.67969 0.180498
15292.08008 0.180521
15293.49023 0.180543
15294.88965 0.180565
15296.29004 0.180574
15297.69043 0.180583
15299.09961 0.180591
15300.50000 0.180605
15301.90039 0.180629
15303.29980 0.180653
15304.70996 0.180677
15306.11035 0.180686
15307.50977 0.180691
15308.91992 0.180696
15310.32031 0.180699
15311.73047 0.180699
15313.12988 0.180698
15314.53027 0.180697
15315.94043 0.180696
15317.33984 0.180694
15318.75000 0.180693
15320.15039 0.180692
15321.55957 0.180696
15322.95996 0.1807
15324.37012 0.180703
15325.76953 0.180705
15327.17969 0.180705
15328.58008 0.180705
15329.99023 0.180705
15331.38965 0.180708
15332.79980 0.18071
15334.20020 0.180713
15335.61035 0.18071
15337.01953 0.1807
15338.41992 0.18069
15339.83008 0.180679
15341.24023 0.180672
15342.63965 0.180666
15344.04980 0.18066
15345.45996 0.180654
15346.86035 0.180648
15348.26953 0.180644
15349.67969 0.180639
15351.08008 0.180624
15352.49023 0.180606
15353.90039 0.180588
15355.30957 0.180573
15356.71973 0.180566
15358.12012 0.180559
15359.53027 0.180552
15360.94043 0.180538
15362.34961 0.180521
15363.75977 0.180503
15365.16992 0.180487
15366.58008 0.180481
15367.98047 0.180476
15369.38965 0.18047
15370.79980 0.18046
15372.20996 0.180446
15373.62012 0.180432
15375.03027 0.180418
15376.44043 0.18039
15377.84961 0.180361
15379.25977 0.180333
15380.66992 0.180306
15382.08008 0.180281
15383.49023 0.180256
15384.90039 0.180232
15386.30957 0.180231
15387.71973 0.180233
15389.12988 0.180234
15390.54980 0.180217
15391.95996 0.180171
15393.37012 0.180124
15394.78027 0.180077
15396.19043 0.180056
15397.59961 0.18004
15399.01953 0.180024
15400.42969 0.180006
15401.83984 0.179986
15403.25000 0.179967
15404.66016 0.179947
15406.08008 0.179926
15407.49023 0.179905
15408.90039 0.179884
15410.30957 0.179864
15411.73047 0.179848
15413.13965 0.179833
15414.54980 0.179817
15415.96973 0.179799
15417.37988 0.17978
15418.79004 0.179761
15420.20996 0.17974
15421.62012 0.17971
15423.04004 0.17968
15424.45020 0.17965
15425.87012 0.179627
15427.28027 0.179609
15428.69043 0.179592
15430.11035 0.179573
15431.51953 0.179537
15432.94043 0.179502
15434.34961 0.179466
15435.76953 0.179432
15437.17969 0.1794
15438.59961 0.179367
15440.01953 0.179335
15441.42969 0.179313
15442.84961 0.179292
15444.25977 0.17927
15445.67969 0.179237
15447.08984 0.17919
15448.50977 0.179144
15449.92969 0.179097
15451.33984 0.179054
15452.75977 0.179011
15454.17969 0.178968
15455.59961 0.178924
15457.00977 0.17888
15458.42969 0.178836
15459.84961 0.178792
15461.25977 0.178743
15462.67969 0.178692
15464.09961 0.178642
15465.51953 0.178595
15466.94043 0.178552
15468.34961 0.17851
15469.76953 0.178467
15471.19043 0.178428
15472.61035 0.178391
15474.03027 0.178353
15475.45020 0.178306
15476.87012 0.17824
15478.29004 0.178175
15479.70996 0.178109
15481.12012 0.178046
15482.54004 0.177983
15483.95996 0.17792
15485.37988 0.177856
15486.79980 0.177792
15488.21973 0.177729
15489.63965 0.177665
15491.05957 0.177602
15492.48047 0.17754
15493.90039 0.177477
15495.33008 0.177419
15496.75000 0.177372
15498.16992 0.177325
15499.58984 0.177278
15501.00977 0.17721
15502.42969 0.177135
15503.84961 0.177059
15505.26953 0.17698
15506.70020 0.176888
15508.12012 0.176796
15509.54004 0.176705
15510.95996 0.176624
15512.37988 0.176548
15513.80957 0.176472
15515.23047 0.176396
15516.65039 0.176313
15518.07031 0.176231
15519.50000 0.176148
15520.91992 0.176057
15522.33984 0.175961
15523.76953 0.175865
15525.19043 0.17577
15526.61035 0.175676
15528.04004 0.175582
15529.45996 0.175488
15530.87988 0.175404
15532.30957 0.175326
15533.73047 0.175249
15535.16016 0.17517
15536.58008 0.175087
15538.00977 0.175004
15539.42969 0.174921
15540.86035 0.174831
15542.28027 0.174737
15543.70996 0.174642
15545.12988 0.17455
15546.55957 0.174473
15547.98047 0.174396
15549.41016 0.174319
15550.83008 0.174227
15552.25977 0.174124
15553.67969 0.174021
15555.11035 0.173919
15556.54004 0.173837
15557.95996 0.173754
15559.38965 0.173672
15560.82031 0.173592
15562.24023 0.173514
15563.66992 0.173437
15565.09961 0.173358
15566.53027 0.173274
15567.95020 0.17319
15569.37988 0.173106
15570.80957 0.173025
15572.24023 0.172946
15573.66016 0.172867
15575.08984 0.172788
15576.51953 0.172703
15577.95020 0.172617
15579.37988 0.172532
15580.79980 0.172446
15582.23047 0.17236
15583.66016 0.172274
15585.08984 0.172188
15586.51953 0.172106
15587.95020 0.172024
15589.37988 0.171942
15590.80957 0.171861
15592.24023 0.171782
15593.66992 0.171703
15595.09961 0.171624
15596.53027 0.171543
15597.95996 0.171462
15599.38965 0.17138
15600.82031 0.171319
15602.25000 0.171273
15603.67969 0.171228
15605.11035 0.171181
15606.54004 0.171123
15607.96973 0.171065
15609.40039 0.171007
15610.83008 0.170946
15612.25977 0.170882
15613.70020 0.170818
15615.12988 0.170756
15616.55957 0.170702
15617.99023 0.170649
15619.41992 0.170596
15620.86035 0.170541
15622.29004 0.170485
15623.71973 0.17043
15625.15039 0.170375
15626.58984 0.170325
15628.01953 0.170275
15629.45020 0.170225
15630.87988 0.170173
15632.32031 0.170118
15633.75000 0.170063
15635.17969 0.170013
15636.62012 0.169996
15638.04980 0.169978
15639.49023 0.169961
15640.91992 0.169922
15642.34961 0.169871
15643.79004 0.16982
15645.21973 0.169772
15646.66016 0.169735
15648.08984 0.169697
15649.53027 0.16966
15650.95996 0.169625
15652.40039 0.16959
15653.83008 0.169555
15655.26953 0.169522
15656.70020 0.169497
15658.13965 0.169472
15659.57031 0.169448
15661.00977 0.169429
15662.45020 0.169413
15663.87988 0.169398
15665.32031 0.169378
15666.75000 0.169346
15668.19043 0.169313
15669.62988 0.169281
15671.07031 0.169268
15672.50000 0.169261
15673.94043 0.169254
15675.37988 0.169244
15676.80957 0.169226
15678.25000 0.169207
15679.69043 0.169188
15681.12988 0.169171
15682.55957 0.169153
15684.00000 0.169136
15685.44043 0.169122
15686.87988 0.169115
15688.32031 0.169108
15689.75977 0.169101
15691.19043 0.169107
15692.62988 0.169117
15694.07031 0.169126
15695.50977 0.169129
15696.95020 0.169121
15698.38965 0.169114
15699.83008 0.169106
15701.26953 0.16911
15702.70996 0.169116
15704.15039 0.169121
15705.58984 0.169127
15707.03027 0.169131
15708.46973 0.169136
15709.91016 0.169141
15711.34961 0.169154
15712.79004 0.169168
15714.23047 0.169182
15715.66992 0.169198
15717.11035 0.169216
15718.54980 0.169235
15719.99023 0.169254
15721.44043 0.169273
15722.87988 0.169292
15724.32031 0.169312
15725.75977 0.169332
15727.20020 0.169355
15728.63965 0.169377
15730.08984 0.169401
15731.53027 0.169439
15732.96973 0.169477
15734.41016 0.169516
15735.86035 0.169544
15737.29980 0.169567
15738.74023 0.169589
15740.19043 0.169613
15741.62988 0.169645
15743.07031 0.169678
15744.51953 0.16971
15745.95996 0.169749
15747.40039 0.16979
15748.84961 0.169832
15750.29004 0.169872
15751.74023 0.169908
15753.17969 0.169944
15754.62988 0.169981
15756.07031 0.170025
15757.50977 0.170072
15758.95996 0.170119
15760.40039 0.170169
15761.84961 0.170225
15763.29004 0.170282
15764.74023 0.170339
15766.17969 0.170389
15767.62988 0.170438
15769.08008 0.170488
15770.51953 0.170544
15771.96973 0.170615
15773.41016 0.170686
15774.86035 0.170756
15776.30957 0.170808
15777.75000 0.170859
15779.20020 0.170909
15780.65039 0.170962
15782.08984 0.171019
15783.54004 0.171077
15784.99023 0.171134
15786.44043 0.171201
15787.87988 0.171267
15789.33008 0.171334
15790.78027 0.171398
15792.23047 0.171461
15793.66992 0.171523
15795.12012 0.171586
15796.57031 0.171648
15798.01953 0.171711
15799.46973 0.171773
15800.91992 0.171845
15802.37012 0.171922
15803.80957 0.171999
15805.25977 0.172071
15806.70996 0.172121
15808.16016 0.17217
15809.61035 0.17222
15811.05957 0.17229
15812.50977 0.172368
15813.95996 0.172445
15815.41016 0.172518
15816.86035 0.172579
15818.30957 0.172639
15819.75977 0.1727
15821.20996 0.172742
15822.66016 0.17278
15824.11035 0.172819
15825.57031 0.172875
15827.01953 0.172958
15828.46973 0.173041
15829.91992 0.173124
15831.37012 0.173181
15832.82031 0.173236
15834.26953 0.173291
15835.73047 0.173352
15837.17969 0.173419
15838.62988 0.173485
15840.08008 0.173552
15841.53027 0.173618
15842.99023 0.173685
15844.44043 0.173752
15845.88965 0.17382
15847.34961 0.173889
15848.79980 0.173958
15850.25000 0.174026
15851.70996 0.174089
15853.16016 0.174153
15854.61035 0.174216
15856.07031 0.174278
15857.51953 0.174338
15858.96973 0.174399
15860.42969 0.174459
15861.87988 0.174516
15863.33984 0.174574
15864.79004 0.174631
15866.25000 0.174694
15867.70020 0.174758
15869.16016 0.174821
15870.61035 0.174889
15872.07031 0.174965
15873.51953 0.17504
15874.98047 0.175115
15876.42969 0.175162
15877.88965 0.175208
15879.33984 0.175254
15880.79980 0.175306
15882.25977 0.175361
15883.70996 0.175416
15885.16992 0.175472
15886.62012 0.175531
15888.08008 0.175591
15889.54004 0.17565
15891.00000 0.175705
15892.45020 0.175758
15893.91016 0.175811
15895.37012 0.175865
15896.83008 0.175922
15898.28027 0.175979
15899.74023 0.176036
15901.20020 0.176094
15902.66016 0.176152
15904.11035 0.17621
15905.57031 0.17627
15907.03027 0.176332
15908.49023 0.176395
15909.95020 0.176458
15911.41016 0.176518
15912.87012 0.176579
15914.33008 0.176639
15915.78027 0.176701
15917.24023 0.176765
15918.70020 0.176829
15920.16016 0.176891
15921.62012 0.176932
15923.08008 0.176974
15924.54004 0.177016
15926.00000 0.17707
15927.45996 0.177131
15928.91992 0.177191
15930.37988 0.177243
15931.83984 0.177272
15933.30957 0.1773
15934.76953 0.177329
15936.23047 0.177379
15937.69043 0.177434
15939.15039 0.177489
15940.61035 0.177541
15942.07031 0.177586
15943.54004 0.177632
15945.00000 0.177677
15946.45996 0.177705
15947.91992 0.177733
15949.37988 0.17776
15950.84961 0.177785
15952.30957 0.177808
15953.76953 0.177831
15955.23047 0.177856
15956.70020 0.177894
15958.16016 0.177933
15959.62012 0.177971
15961.08984 0.177985
15962.54980 0.177992
15964.00977 0.177998
15965.48047 0.178011
15966.94043 0.178038
15968.41016 0.178066
15969.87012 0.178093
15971.33008 0.178103
15972.79980 0.178112
15974.25977 0.17812
15975.73047 0.178138
15977.19043 0.178164
15978.66016 0.178191
15980.12012 0.178215
15981.58984 0.178219
15983.04980 0.178222
15984.51953 0.178226
15985.98047 0.178234
15987.45020 0.178244
15988.91992 0.178254
15990.37988 0.17826
15991.84961 0.178252
15993.32031 0.178245
15994.78027 0.178237
15996.25000 0.178226
15997.70996 0.178215
15999.17969 0.178203
16000.65039 0.1782
16002.12012 0.178209
16003.58008 0.178217
16005.04980 0.178226
16006.51953 0.178251
16007.99023 0.178276
16009.45020 0.178302
16010.91992 0.178323
16012.38965 0.178343
16013.86035 0.178362
16015.33008 0.178378
16016.79004 0.178379
16018.25977 0.17838
16019.73047 0.178381
16021.20020 0.178382
16022.66992 0.178383
16024.13965 0.178383
16025.61035 0.178383
16027.08008 0.17838
16028.54980 0.178378
16030.01953 0.178376
16031.49023 0.17838
16032.95996 0.178385
16034.42969 0.17839
16035.90039 0.178395
16037.37012 0.1784
16038.83984 0.178405
16040.30957 0.178406
16041.78027 0.178393
16043.25000 0.178379
16044.71973 0.178365
16046.19043 0.178354
16047.66016 0.178344
16049.13965 0.178333
16050.61035 0.178326
16052.08008 0.178325
16053.54980 0.178323
16055.01953 0.178321
16056.50000 0.178307
16057.96973 0.178293
16059.44043 0.178279
16060.91016 0.178262
16062.37988 0.178244
16063.86035 0.178226
16065.33008 0.178212
16066.79980 0.178211
16068.28027 0.17821
16069.75000 0.178209
16071.21973 0.178199
16072.70020 0.178186
16074.16992 0.178174
16075.63965 0.17816
16077.12012 0.178146
16078.58984 0.178131
16080.07031 0.178117
16081.54004 0.178106
16083.01953 0.178094
16084.49023 0.178083
16085.96973 0.178064
16087.44043 0.17804
16088.91992 0.178017
16090.38965 0.177996
16091.87012 0.177982
16093.33984 0.177968
16094.82031 0.177954
16096.29004 0.177937
16097.76953 0.177919
16099.25000 0.177901
16100.71973 0.177896
16102.20020 0.177905
16103.66992 0.177915
16105.15039 0.177922
16106.62988 0.177908
16108.09961 0.177894
16109.58008 0.177881
16111.05957 0.177878
16112.54004 0.177881
16114.00977 0.177883
16115.49023 0.177879
16116.96973 0.177864
16118.45020 0.177848
16119.91992 0.177833
16121.40039 0.177831
16122.87988 0.177831
16124.36035 0.17783
16125.83984 0.177834
16127.32031 0.177842
16128.79004 0.177849
16130.26953 0.177856
16131.75000 0.177859
16133.23047 0.177862
16134.70996 0.177865
16136.19043 0.177874
16137.66992 0.177885
16139.15039 0.177896
16140.62988 0.177901
16142.11035 0.177897
16143.58984 0.177893
16145.07031 0.17789
16146.54980 0.177887
16148.03027 0.177883
16149.50977 0.17788
16150.99023 0.177889
16152.46973 0.177905
16153.95020 0.17792
16155.44043 0.177933
16156.91992 0.177941
16158.40039 0.177949
16159.87988 0.177957
16161.36035 0.177978
16162.83984 0.177999
16164.33008 0.178021
16165.80957 0.178048
16167.29004 0.178078
16168.76953 0.178108
16170.25000 0.178136
16171.74023 0.178153
16173.21973 0.178171
16174.70020 0.178188
16176.19043 0.17821
16177.66992 0.178232
16179.15039 0.178254
16180.63965 0.178278
16182.12012 0.178305
16183.59961 0.178331
16185.08984 0.178359
16186.57031 0.178402
16188.05957 0.178446
16189.54004 0.178489
16191.01953 0.178514
16192.50977 0.178531
16193.99023 0.178548
16195.48047 0.178574
16196.95996 0.178619
16198.45020 0.178663
16199.92969 0.178708
16201.41992 0.178729
16202.91016 0.17875
16204.38965 0.17877
16205.87988 0.178806
16207.36035 0.178852
16208.84961 0.178898
16210.33008 0.178943
16211.82031 0.178983
16213.30957 0.179024
16214.79004 0.179065
16216.28027 0.179107
16217.76953 0.17915
16219.25000 0.179193
16220.74023 0.179236
16222.23047 0.17928
16223.71973 0.179325
16225.20996 0.179371
16226.69043 0.179433
16228.17969 0.179494
16229.66992 0.179556
16231.16016 0.179599
16232.63965 0.179639
16234.12988 0.179678
16235.62012 0.179728
16237.11035 0.179794
16238.59961 0.17986
16240.08984 0.179925
16241.58008 0.179986
16243.07031 0.180046
16244.55957 0.180106
16246.04980 0.180173
16247.54004 0.180243
16249.03027 0.180312
16250.50977 0.180383
16252.00000 0.180454
16253.50000 0.180525
16254.99023 0.180596
16256.48047 0.180671
16257.96973 0.180747
16259.45996 0.180823
16260.95020 0.180899
16262.44043 0.180974
16263.92969 0.18105
16265.41992 0.18113
16266.91016 0.181224
16268.40039 0.181318
16269.90039 0.181412
16271.38965 0.181499
16272.87988 0.181585
16274.37012 0.181671
16275.86035 0.18176
16277.36035 0.181852
16278.84961 0.181944
16280.33984 0.182036
16281.83008 0.182129
16283.33008 0.182221
16284.82031 0.182313
16286.30957 0.182407
16287.80957 0.1825
16289.29980 0.182593
16290.79004 0.182687
16292.29004 0.182781
16293.78027 0.182876
16295.28027 0.182971
16296.76953 0.18307
16298.25977 0.18317
16299.75977 0.183269
16301.25000 0.183381
16302.75000 0.183495
16304.24023 0.18361
16305.74023 0.183724
16307.23047 0.18384
16308.73047 0.183956
16310.21973 0.18407
16311.71973 0.184176
16313.20996 0.184283
16314.70996 0.18439
16316.20996 0.184499
16317.70020 0.184609
16319.20020 0.184718
16320.70020 0.184839
16322.19043 0.184972
16323.69043 0.185106
16325.17969 0.185238
16326.67969 0.185361
16328.17969 0.185485
16329.67969 0.185608
16331.16992 0.18573
16332.66992 0.185851
16334.16992 0.185972
16335.66992 0.186102
16337.16016 0.186241
16338.66016 0.186381
16340.16016 0.186518
16341.66016 0.186632
16343.16016 0.186747
16344.66016 0.186862
16346.15039 0.186977
16347.65039 0.187093
16349.15039 0.187209
16350.65039 0.187341
16352.15039 0.187493
16353.65039 0.187645
16355.15039 0.187797
16356.65039 0.187942
16358.15039 0.188087
16359.65039 0.188232
16361.15039 0.188348
16362.65039 0.188456
16364.15039 0.188564
16365.65039 0.18869
16367.15039 0.188838
16368.65039 0.188986
16370.15039 0.189133
16371.65039 0.189269
16373.15039 0.189404
16374.66016 0.18954
16376.16016 0.189686
16377.66016 0.189836
16379.16016 0.189987
16380.66016 0.190128
16382.16016 0.19026
16383.66992 0.190391
16385.16992 0.190522
16386.66992 0.190653
16388.16992 0.190784
16389.67969 0.190914
16391.17969 0.191054
16392.67969 0.191197
16394.17969 0.19134
16395.68945 0.191487
16397.18945 0.19164
16398.69922 0.191794
16400.19922 0.191947
16401.69922 0.1921
16403.21094 0.192254
16404.71094 0.192407
16406.21094 0.192559
16407.72070 0.192711
16409.22070 0.192863
16410.73047 0.193004
16412.23047 0.193134
16413.74023 0.193263
16415.24023 0.193395
16416.75000 0.193542
16418.25000 0.193689
16419.75977 0.193836
16421.25977 0.193992
16422.76953 0.19415
16424.27930 0.194307
16425.77930 0.194445
16427.28906 0.194565
16428.78906 0.194685
16430.30078 0.19481
16431.81055 0.194954
16433.31055 0.195097
16434.82031 0.195241
16436.33008 0.195388
16437.83008 0.195536
16439.33984 0.195683
16440.84961 0.195825
16442.35938 0.195961
16443.85938 0.196098
16445.36914 0.196238
16446.88086 0.196388
16448.39062 0.196537
16449.90039 0.196687
16451.40039 0.196824
16452.91016 0.196959
16454.41992 0.197095
16455.92969 0.197227
16457.43945 0.197358
16458.94922 0.197488
16460.46094 0.197621
16461.97070 0.197758
16463.48047 0.197895
16464.98047 0.198031
16466.49023 0.198156
16468.00000 0.198281
16469.51953 0.198407
16471.02930 0.198548
16472.53906 0.198696
16474.03906 0.198845
16475.56055 0.198984
16477.07031 0.199106
16478.58008 0.199228
16480.08984 0.199351
16481.59961 0.199482
16483.10938 0.199614
16484.61914 0.199746
16486.13086 0.199864
16487.64062 0.199978
16489.16016 0.200092
16490.66992 0.200211
16492.17969 0.200339
16493.68945 0.200466
16495.21094 0.200593
16496.72070 0.200718
16498.23047 0.200843
16499.74023 0.200968
16501.25977 0.201075
16502.76953 0.201179
16504.27930 0.201283
16505.80078 0.201396
16507.31055 0.201517
16508.82031 0.201638
16510.33984 0.201755
16511.84961 0.201856
16513.36914 0.201958
16514.88086 0.20206
16516.39062 0.202157
16517.91016 0.202255
16519.41992 0.202352
16520.93945 0.202458
16522.44922 0.202569
16523.97070 0.20268
16525.48047 0.202788
16527.00000 0.202888
16528.50977 0.202987
16530.02930 0.203088
16531.53906 0.203201
16533.06055 0.203315
16534.58008 0.203429
16536.08984 0.203511
16537.60938 0.20358
16539.11914 0.20365
16540.64062 0.203733
16542.16016 0.203834
16543.66992 0.203934
16545.18945 0.204035
16546.71094 0.204138
16548.22070 0.20424
16549.74023 0.204343
16551.25977 0.204433
16552.77930 0.20452
16554.28906 0.204607
16555.81055 0.204688
16557.33008 0.204764
16558.84961 0.204839
16560.36914 0.204913
16561.89062 0.204985
16563.40039 0.205056
16564.91992 0.205128
16566.43945 0.205216
16567.96094 0.205305
16569.48047 0.205394
16571.00000 0.205475
16572.51953 0.205553
16574.03906 0.205631
16575.56055 0.205703
16577.08008 0.205765
16578.59961 0.205827
16580.11914 0.205892
16581.64062 0.205986
16583.16016 0.206081
16584.67969 0.206175
16586.19922 0.206244
16587.72070 0.206307
16589.24023 0.206369
16590.75977 0.206427
16592.28906 0.20648
16593.81055 0.206534
16595.33008 0.20659
16596.84961 0.206657
16598.36914 0.206724
16599.89062 0.20679
16601.41992 0.206874
16602.93945 0.20696
16604.46094 0.207045
16605.98047 0.207105
16607.50977 0.20715
16609.02930 0.207196
16610.55078 0.207259
16612.07031 0.207354
16613.59961 0.20745
16615.11914 0.207541
16616.64062 0.207586
16618.16992 0.207631
16619.68945 0.207676
16621.21094 0.207723
16622.74023 0.207771
16624.25977 0.207818
16625.78906 0.207884
16627.31055 0.207967
16628.83984 0.20805
16630.35938 0.208125
16631.89062 0.208174
16633.41016 0.208222
16634.93945 0.208271
16636.46094 0.208326
16637.99023 0.208382
16639.50977 0.208437
16641.03906 0.208494
16642.56055 0.208551
16644.08984 0.208608
16645.61914 0.208665
16647.14062 0.208723
16648.66992 0.208781
16650.19922 0.208836
16651.72070 0.208872
16653.25000 0.208908
16654.77930 0.208944
16656.30078 0.208992
16657.83008 0.209042
16659.35938 0.209093
16660.89062 0.209138
16662.41016 0.209178
16663.93945 0.209219
16665.47070 0.209264
16667.00000 0.209317
16668.52930 0.209371
16670.05078 0.209425
16671.58008 0.209491
16673.10938 0.209557
16674.64062 0.209623
16676.16992 0.209664
16677.69922 0.209698
16679.23047 0.209732
16680.75977 0.209767
16682.28906 0.209804
16683.82031 0.209842
16685.34961 0.209879
16686.88086 0.209915
16688.41016 0.209952
16689.93945 0.209988
16691.47070 0.210033
16693.00000 0.210078
16694.52930 0.210123
16696.06055 0.210166
16697.58984 0.210209
16699.11914 0.210252
16700.65039 0.210289
16702.17969 0.210318
16703.71094 0.210347
16705.25000 0.210378
16706.77930 0.210419
16708.31055 0.210461
16709.83984 0.210502
16711.36914 0.21054
16712.91016 0.210577
16714.43945 0.210615
16715.97070 0.210653
16717.50000 0.210693
16719.03906 0.210732
16720.57031 0.210767
16722.09961 0.210794
16723.63086 0.210821
16725.16992 0.210849
16726.69922 0.210882
16728.24023 0.210914
16729.76953 0.210947
16731.30078 0.210978
16732.83984 0.211009
16734.36914 0.211041
16735.91016 0.211076
16737.43945 0.211113
16738.98047 0.211151
16740.50977 0.21119
16742.05078 0.21123
16743.58008 0.211271
16745.11914 0.21131
16746.65039 0.21133
16748.18945 0.211351
16749.72070 0.211372
16751.25977 0.211412
16752.78906 0.211457
16754.33008 0.211501
16755.86914 0.211535
16757.40039 0.211561
16758.93945 0.211586
16760.48047 0.211608
16762.00977 0.21162
16763.55078 0.211634
16765.08984 0.211649
16766.61914 0.211707
16768.16016 0.211765
16769.69922 0.211823
16771.24023 0.211844
16772.77930 0.211856
16774.31055 0.211868
16775.84961 0.211896
16777.39062 0.211937
16778.92969 0.211978
16780.47070 0.212023
16782.00977 0.212075
16783.53906 0.212128
16785.08008 0.212177
16786.61914 0.212181
16788.16016 0.212184
16789.69922 0.212187
16791.24023 0.212222
16792.77930 0.212265
16794.32031 0.212307
16795.85938 0.212342
16797.40039 0.212371
16798.93945 0.212399
16800.48047 0.212426
16802.01953 0.212449
16803.56055 0.212472
16805.09961 0.212497
16806.64062 0.212548
16808.17969 0.212598
16809.72070 0.212648
16811.26953 0.212669
16812.81055 0.212683
16814.34961 0.212698
16815.89062 0.212725
16817.42969 0.212761
16818.97070 0.212797
16820.51953 0.212843
16822.06055 0.212906
16823.59961 0.21297
16825.14062 0.21303
16826.68945 0.21305
16828.23047 0.213069
16829.76953 0.213089
16831.32031 0.213114
16832.85938 0.21314
16834.40039 0.213165
16835.94922 0.213215
16837.49023 0.213279
16839.02930 0.213344
16840.58008 0.21339
16842.11914 0.213408
16843.66992 0.213425
16845.21094 0.213444
16846.75977 0.213476
16848.30078 0.213509
16849.84961 0.213541
16851.39062 0.213571
16852.93945 0.2136
16854.48047 0.21363
16856.02930 0.213651
16857.57031 0.213669
16859.11914 0.213686
16860.66016 0.21372
16862.21094 0.213774
16863.75977 0.213829
16865.30078 0.213876
16866.84961 0.213891
16868.39062 0.213905
16869.93945 0.21392
16871.49023 0.213951
16873.03906 0.213983
16874.58008 0.214015
16876.13086 0.214066
16877.67969 0.214125
16879.22070 0.214183
16880.76953 0.214222
16882.32031 0.214241
16883.86914 0.214259
16885.41992 0.214282
16886.96094 0.214317
16888.50977 0.214351
16890.06055 0.214386
16891.60938 0.214422
16893.16016 0.214457
16894.71094 0.214493
16896.25977 0.214517
16897.81055 0.214538
16899.35938 0.21456
16900.90039 0.214579
16902.46094 0.214597
16904.00000 0.214615
16905.55078 0.214646
16907.10938 0.214701
16908.65039 0.214756
16910.21094 0.214806
16911.75977 0.214815
16913.31055 0.214824
16914.85938 0.214833
16916.41016 0.214864
16917.96094 0.214898
16919.50977 0.214932
16921.06055 0.214962
16922.60938 0.214992
16924.16992 0.215022
16925.72070 0.215042
16927.26953 0.215053
16928.82031 0.215064
16930.36914 0.215081
16931.92969 0.215119
16933.48047 0.215157
16935.02930 0.215195
16936.58008 0.215217
16938.14062 0.215239
16939.68945 0.21526
16941.24023 0.215288
16942.80078 0.215318
16944.34961 0.215347
16945.90039 0.215378
16947.46094 0.21541
16949.00977 0.215441
16950.57031 0.215469
16952.11914 0.215491
16953.66992 0.215513
16955.23047 0.215535
16956.77930 0.215559
16958.33984 0.215584
16959.89062 0.215608
16961.44922 0.215645
16963.00000 0.215684
16964.56055 0.215723
16966.11914 0.215751
16967.66992 0.215775
16969.23047 0.215799
16970.77930 0.215839
16972.33984 0.215895
16973.89062 0.215951
16975.44922 0.215993
16977.00977 0.216001
16978.56055 0.216008
16980.11914 0.216018
16981.67969 0.21605
16983.23047 0.216082
16984.78906 0.216114
16986.34961 0.216145
16987.91016 0.216177
16989.46094 0.216209
16991.01953 0.216239
16992.58008 0.216269
16994.14062 0.216299
16995.69922 0.216334
16997.25000 0.216377
16998.81055 0.21642
17000.36914 0.216445
17001.92969 0.216412
17003.49023 0.216379
17005.05078 0.216346
17006.60938 0.216309
17008.16992 0.216272
17009.73047 0.216234
17011.28906 0.216223
17012.84961 0.216216
17014.41016 0.21621
17015.97070 0.216199
17017.52930 0.216186
17019.08984 0.216173
17020.65039 0.216141
17022.21094 0.216084
17023.76953 0.216027
17025.33008 0.215985
17026.89062 0.216004
17028.44922 0.216022
17030.00977 0.216041
17031.58008 0.216015
17033.14062 0.215989
17034.69922 0.215963
17036.25977 0.215956
17037.82031 0.215952
17039.38086 0.215949
17040.94922 0.215935
17042.50977 0.215913
17044.07031 0.215891
17045.63086 0.215868
17047.19922 0.215846
17048.75977 0.215823
17050.32031 0.215804
17051.89062 0.215797
17053.44922 0.215789
17055.01953 0.215782
17056.58008 0.215784
17058.14062 0.215786
17059.71094 0.215787
17061.26953 0.21577
17062.83984 0.215748
17064.40039 0.215726
17065.96094 0.215722
17067.52930 0.215728
17069.09961 0.215734
17070.66016 0.215727
17072.22070 0.215701
17073.78906 0.215676
17075.35938 0.215656
17076.91992 0.215653
17078.49023 0.215651
17080.05078 0.215648
17081.61914 0.215637
17083.18945 0.215626
17084.75000 0.215616
17086.32031 0.215628
17087.88086 0.215644
17089.44922 0.21566
17091.01953 0.215654
17092.58984 0.215636
17094.15039 0.215618
17095.72070 0.215618
17097.28906 0.215639
17098.85938 0.21566
17100.41992 0.215677
17101.99023 0.215681
17103.56055 0.215685
17105.13086 0.215691
17106.69922 0.215721
17108.26953 0.215752
17109.83008 0.215783
17111.40039 0.215825
17112.97070 0.215868
17114.53906 0.215911
17116.10938 0.215934
17117.67969 0.215948
17119.25000 0.215962
17120.82031 0.21599
17122.39062 0.21603
17123.96094 0.21607
17125.52930 0.216112
17127.09961 0.216157
17128.66992 0.216202
17130.24023 0.216248
17131.81055 0.216298
17133.38086 0.216348
17134.94922 0.216398
17136.51953 0.216414
17138.09961 0.216428
17139.66992 0.216443
17141.24023 0.216479
17142.81055 0.216521
17144.38086 0.216563
17145.96094 0.216596
17147.52930 0.216623
17149.09961 0.216649
17150.66992 0.21668
17152.24023 0.216715
17153.82031 0.216751
17155.39062 0.216794
17156.96094 0.21686
17158.53906 0.216926
17160.10938 0.216991
17161.67969 0.217025
17163.25977 0.217058
17164.83008 0.217092
17166.40039 0.217159
17167.98047 0.217229
17169.55078 0.217299
17171.13086 0.217347
17172.69922 0.217387
17174.27930 0.217426
17175.84961 0.217476
17177.41992 0.217535
17179.00000 0.217594
17180.57031 0.217651
17182.15039 0.217704
17183.73047 0.217758
17185.30078 0.217813
17186.88086 0.217872
17188.44922 0.217931
17190.02930 0.217989
17191.60938 0.218047
17193.17969 0.218105
17194.75977 0.218163
17196.33008 0.218232
17197.91016 0.218303
17199.49023 0.218374
17201.07031 0.218424
17202.64062 0.218462
17204.22070 0.218501
17205.80078 0.218565
17207.36914 0.218654
17208.94922 0.218743
17210.52930 0.218809
17212.10938 0.218831
17213.68945 0.218853
17215.26953 0.218885
17216.83984 0.218969
17218.41992 0.219053
17220.00000 0.219136
17221.58008 0.219222
17223.16016 0.219307
17224.74023 0.219393
17226.32031 0.219461
17227.90039 0.219525
17229.48047 0.219589
17231.06055 0.219653
17232.64062 0.219718
17234.22070 0.219783
17235.80078 0.219844
17237.38086 0.2199
17238.96094 0.219956
17240.53906 0.220011
17242.11914 0.220065
17243.69922 0.220119
17245.27930 0.22018
17246.85938 0.220276
17248.44922 0.220372
17250.02930 0.220469
17251.60938 0.220559
17253.18945 0.22065
17254.76953 0.22074
17256.34961 0.220804
17257.93945 0.220862
17259.51953 0.220921
17261.09961 0.220996
17262.67969 0.221077
17264.26953 0.221158
17265.84961 0.221221
17267.42969 0.221269
17269.01953 0.221316
17270.59961 0.221372
17272.17969 0.221441
17273.76953 0.221509
17275.34961 0.22158
17276.93945 0.221659
17278.51953 0.221738
17280.09961 0.221815
17281.68945 0.221878
17283.26953 0.221942
17284.85938 0.222005
17286.43945 0.222076
17288.02930 0.222148
17289.60938 0.22222
17291.19922 0.222289
17292.77930 0.222358
17294.36914 0.222427
17295.96094 0.222495
17297.53906 0.222563
17299.13086 0.22263
17300.71094 0.222687
17302.30078 0.222731
17303.88086 0.222774
17305.47070 0.222814
17307.06055 0.222845
17308.65039 0.222875
17310.23047 0.22291
17311.82031 0.222965
17313.41016 0.223021
17314.99023 0.223077
17316.58008 0.223123
17318.16992 0.223168
17319.75977 0.223213
17321.34961 0.223259
17322.93945 0.223304
17324.51953 0.22335
17326.10938 0.223395
17327.69922 0.223441
17329.28906 0.223486
17330.88086 0.223521
17332.47070 0.223546
17334.06055 0.223572
17335.65039 0.223599
17337.24023 0.22363
17338.82031 0.22366
17340.41016 0.223693
17342.00977 0.223734
17343.59961 0.223774
17345.18945 0.223813
17346.77930 0.223836
17348.36914 0.22386
17349.96094 0.223883
17351.55078 0.223935
17353.14062 0.223989
17354.73047 0.224042
17356.32031 0.224052
17357.91016 0.224053
17359.50000 0.224055
17361.09961 0.224078
17362.68945 0.224111
17364.27930 0.224145
17365.86914 0.224171
17367.46094 0.224192
17369.06055 0.224213
17370.65039 0.224237
17372.24023 0.224266
17373.83984 0.224295
17375.42969 0.224313
17377.01953 0.224304
17378.61914 0.224294
17380.21094 0.224288
17381.80078 0.224304
17383.40039 0.22432
17384.99023 0.224336
17386.58008 0.224333
17388.17969 0.224329
17389.76953 0.224326
17391.36914 0.224319
17392.96094 0.224311
17394.56055 0.224304
17396.15039 0.2243
17397.75000 0.224297
17399.33984 0.224293
17400.93945 0.224304
17402.52930 0.224323
17404.13086 0.224343
17405.72070 0.224353
17407.32031 0.224351
17408.91992 0.22435
17410.50977 0.224351
17412.10938 0.224357
17413.71094 0.224363
17415.30078 0.224365
17416.90039 0.224348
17418.50000 0.224331
17420.08984 0.224316
17421.68945 0.224319
17423.28906 0.224323
17424.88086 0.224326
17426.48047 0.224307
17428.08008 0.224287
17429.67969 0.224267
17431.27930 0.224243
17432.86914 0.224219
17434.47070 0.224194
17436.07031 0.224172
17437.66992 0.224151
17439.26953 0.22413
17440.86914 0.224105
17442.47070 0.224078
17444.07031 0.22405
17445.66992 0.224026
17447.26953 0.224008
17448.86914 0.22399
17450.47070 0.223969
17452.07031 0.223941
17453.66992 0.223912
17455.26953 0.22388
17456.86914 0.223829
17458.47070 0.223778
17460.07031 0.223727
17461.66992 0.223681
17463.26953 0.223636
17464.86914 0.22359
17466.47070 0.223562
17468.08008 0.223536
17469.67969 0.223509
17471.27930 0.223462
17472.88086 0.22341
17474.48047 0.223358
17476.08984 0.223309
17477.68945 0.22326
17479.28906 0.223212
17480.89062 0.223154
17482.50000 0.22309
17484.09961 0.223026
17485.69922 0.222968
17487.30078 0.222919
17488.91016 0.222869
17490.50977 0.222819
17492.11914 0.222765
17493.72070 0.222711
17495.32031 0.222655
17496.92969 0.222588
17498.52930 0.222521
17500.14062 0.222454
17501.74023 0.22238
17503.34961 0.222306
17504.94922 0.222232
17506.56055 0.222136
17508.16016 0.222039
17509.76953 0.221942
17511.36914 0.221869
17512.98047 0.221801
17514.58008 0.221732
17516.18945 0.221633
17517.80078 0.221523
17519.40039 0.221413
17521.00977 0.221319
17522.61914 0.221233
17524.22070 0.221148
17525.83008 0.22105
17527.43945 0.220938
17529.03906 0.220827
17530.65039 0.220732
17532.25977 0.220663
17533.86914 0.220593
17535.47070 0.220518
17537.08008 0.22043
17538.68945 0.220341
17540.30078 0.220247
17541.91016 0.220128
17543.50977 0.220008
17545.11914 0.219887
17546.73047 0.219753
17548.33984 0.219619
17549.94922 0.219486
17551.56055 0.219417
17553.16992 0.219351
17554.77930 0.219285
17556.39062 0.219175
17558.00000 0.219059
17559.60938 0.218942
17561.22070 0.218864
17562.83008 0.218799
17564.43945 0.218734
17566.05078 0.218628
17567.66016 0.2185
17569.26953 0.218372
17570.88086 0.218251
17572.49023 0.218136
17574.09961 0.218021
17575.71094 0.217916
17577.33008 0.217825
17578.93945 0.217733
17580.55078 0.217637
17582.16016 0.21753
17583.76953 0.217423
17585.39062 0.217312
17587.00000 0.217188
17588.60938 0.217064
17590.22070 0.216945
17591.83984 0.21685
17593.44922 0.216756
17595.06055 0.216662
17596.67969 0.216566
17598.28906 0.216469
17599.90039 0.216372
17601.51953 0.216286
17603.13086 0.2162
17604.74023 0.216115
17606.35938 0.21602
17607.97070 0.215923
17609.58984 0.215826
17611.19922 0.215748
17612.82031 0.215678
17614.42969 0.215608
17616.05078 0.215522
17617.66016 0.215427
17619.27930 0.215332
17620.89062 0.215254
17622.50977 0.215188
17624.11914 0.215123
17625.74023 0.215049
17627.35938 0.214965
17628.97070 0.21488
17630.58984 0.214797
17632.21094 0.214714
17633.82031 0.214632
17635.43945 0.214547
17637.06055 0.214455
17638.66992 0.214364
17640.28906 0.214277
17641.91016 0.214214
17643.52930 0.21415
17645.14062 0.214088
17646.75977 0.214033
17648.38086 0.213979
17650.00000 0.213924
17651.61914 0.213854
17653.24023 0.213783
17654.85938 0.213712
17656.47070 0.213658
17658.08984 0.213605
17659.71094 0.213551
17661.33008 0.213495
17662.94922 0.213437
17664.57031 0.213379
17666.18945 0.213301
17667.81055 0.213215
17669.42969 0.213129
17671.05078 0.213067
17672.66992 0.213019
17674.28906 0.21297
17675.91016 0.212919
17677.52930 0.212866
17679.15039 0.212813
17680.76953 0.21276
17682.39062 0.212706
17684.01953 0.212652
17685.64062 0.212601
17687.25977 0.212553
17688.88086 0.212504
17690.50000 0.212455
17692.13086 0.212402
17693.75000 0.21235
17695.36914 0.212301
17696.99023 0.212263
17698.61914 0.212224
17700.24023 0.212186
17701.85938 0.212148
17703.48047 0.21211
17705.10938 0.212073
17706.73047 0.21205
17708.34961 0.212026
17709.98047 0.212003
17711.59961 0.211968
17713.23047 0.211933
17714.84961 0.211897
17716.47070 0.211876
17718.09961 0.211857
17719.72070 0.211837
17721.34961 0.211815
17722.97070 0.211794
17724.59961 0.211772
17726.22070 0.21172
17727.84961 0.211657
17729.47070 0.211595
17731.09961 0.211579
17732.73047 0.211585
17734.34961 0.211591
17735.98047 0.211562
17737.59961 0.211511
17739.23047 0.211459
17740.85938 0.211442
17742.48047 0.211457
17744.10938 0.211472
17745.74023 0.211484
17747.36914 0.21149
17748.99023 0.211497
17750.61914 0.211499
17752.25000 0.211492
17753.88086 0.211484
17755.50000 0.211484
17757.13086 0.211501
17758.75977 0.211517
17760.39062 0.211527
17762.01953 0.211516
17763.64062 0.211506
17765.26953 0.211499
17766.90039 0.211511
17768.52930 0.211523
17770.16016 0.211536
17771.78906 0.211562
17773.41992 0.211589
17775.05078 0.211615
17776.67969 0.211644
17778.31055 0.211672
17779.93945 0.2117
17781.57031 0.211736
17783.19922 0.211772
17784.83008 0.211808
17786.46094 0.211832
17788.08984 0.211854
17789.72070 0.211876
17791.34961 0.211928
17792.99023 0.211986
17794.61914 0.212044
17796.25000 0.21208
17797.88086 0.21211
17799.50977 0.21214
17801.14062 0.212188
17802.77930 0.212245
17804.41016 0.212302
17806.03906 0.212331
17807.66992 0.212343
17809.31055 0.212356
17810.93945 0.212417
17812.57031 0.212513
17814.21094 0.212609
17815.83984 0.212681
17817.47070 0.212731
17819.10938 0.212781
17820.74023 0.212833
17822.38086 0.212889
17824.00977 0.212944
17825.64062 0.213023
17827.27930 0.213141
17828.91016 0.213259
17830.55078 0.213363
17832.17969 0.213439
17833.82031 0.213515
17835.44922 0.213596
17837.08984 0.21369
17838.72070 0.213785
17840.35938 0.213874
17842.00000 0.213944
17843.63086 0.214013
17845.26953 0.214085
17846.90039 0.214163
17848.53906 0.21424
17850.17969 0.214322
17851.81055 0.214434
17853.44922 0.214547
17855.08984 0.214659
17856.72070 0.214759
17858.35938 0.214858
17860.00000 0.214958
17861.64062 0.215048
17863.27930 0.215138
17864.91016 0.215228
17866.55078 0.215345
17868.18945 0.215464
17869.83008 0.215582
17871.46094 0.215684
17873.09961 0.215784
17874.74023 0.215884
17876.38086 0.216007
17878.01953 0.216134
17879.66016 0.216261
17881.30078 0.21641
17882.93945 0.216564
17884.58008 0.216719
17886.22070 0.216828
17887.85938 0.216922
17889.50000 0.217015
17891.14062 0.21712
17892.77930 0.217229
17894.41992 0.217339
17896.06055 0.217453
17897.69922 0.217569
17899.33984 0.217686
17900.98047 0.217831
17902.63086 0.217995
17904.26953 0.21816
17905.91016 0.218293
17907.55078 0.2184
17909.18945 0.218507
17910.83984 0.21864
17912.48047 0.218798
17914.11914 0.218956
17915.75977 0.21911
17917.41016 0.219259
17919.05078 0.219409
17920.68945 0.219552
17922.33008 0.219688
17923.98047 0.219824
17925.61914 0.219949
17927.26953 0.220057
17928.91016 0.220164
17930.55078 0.220289
17932.19922 0.220449
17933.83984 0.220609
17935.49023 0.220768
17937.13086 0.220925
17938.77930 0.221082
17940.41992 0.221235
17942.06055 0.221376
17943.71094 0.221517
17945.35938 0.221657
17947.00000 0.221794
17948.65039 0.221932
17950.28906 0.222079
17951.93945 0.222267
17953.58008 0.222455
17955.23047 0.222635
17956.88086 0.222762
17958.51953 0.22289
17960.16992 0.223019
17961.82031 0.223167
17963.46094 0.223315
17965.10938 0.223463
17966.75977 0.22362
17968.41016 0.223777
17970.05078 0.223933
17971.69922 0.22409
17973.34961 0.224246
17975.00000 0.224402
17976.64062 0.224556
17978.28906 0.224711
17979.93945 0.224865
17981.58984 0.225038
17983.24023 0.225212
17984.89062 0.225385
17986.53906 0.225527
17988.18945 0.225667
17989.83984 0.225807
17991.48047 0.225948
17993.13086 0.226089
17994.78906 0.22623
17996.42969 0.226384
17998.08008 0.226542
17999.73047 0.226699
18001.38086 0.226858
18003.03906 0.227018
18004.68945 0.227178
18006.33984 0.227308
18007.99023 0.22743
18009.64062 0.227553
18011.28906 0.22767
18012.93945 0.227786
18014.58984 0.227901
18016.25000 0.228038
18017.90039 0.228183
18019.55078 0.228328
18021.19922 0.228463
18022.85938 0.228594
18024.50977 0.228724
18026.16016 0.228833
18027.81055 0.228931
18029.47070 0.22903
18031.11914 0.229162
18032.76953 0.229311
18034.42969 0.229459
18036.08008 0.229556
18037.73047 0.229625
18039.39062 0.229695
18041.03906 0.229793
18042.69922 0.229908
18044.34961 0.230023
18046.00000 0.230151
18047.66016 0.23029
18049.31055 0.230428
18050.97070 0.230548
18052.63086 0.230655
18054.27930 0.230762
18055.93945 0.230878
18057.58984 0.230999
18059.25000 0.231121
18060.90039 0.231236
18062.56055 0.231346
18064.21094 0.231455
18065.86914 0.231548
18067.52930 0.231627
18069.17969 0.231706
18070.83984 0.231802
18072.50000 0.231915
18074.15039 0.232028
18075.81055 0.232141
18077.47070 0.232253
18079.13086 0.232366
18080.78906 0.232466
18082.43945 0.232551
18084.09961 0.232636
18085.75977 0.232711
18087.41992 0.232774
18089.08008 0.232838
18090.73047 0.232921
18092.39062 0.233029
18094.05078 0.233137
18095.71094 0.233225
18097.36914 0.233286
18099.02930 0.233346
18100.68945 0.233421
18102.34961 0.233517
18104.00977 0.233613
18105.66992 0.233716
18107.33008 0.233831
18108.99023 0.233945
18110.65039 0.23404
18112.31055 0.234105
18113.97070 0.234169
18115.63086 0.234231
18117.28906 0.23429
18118.96094 0.234349
18120.61914 0.234416
18122.27930 0.234497
18123.93945 0.234579
18125.59961 0.234647
18127.25977 0.234693
18128.92969 0.234739
18130.58984 0.234797
18132.25000 0.234876
18133.91016 0.234955
18135.57031 0.235025
18137.24023 0.235079
18138.90039 0.235133
18140.56055 0.23518
18142.23047 0.235212
18143.89062 0.235245
18145.55078 0.235291
18147.22070 0.235366
18148.88086 0.23544
18150.55078 0.235498
18152.21094 0.235523
18153.88086 0.235548
18155.53906 0.235585
18157.21094 0.235648
18158.86914 0.23571
18160.53906 0.235769
18162.19922 0.235818
18163.86914 0.235868
18165.52930 0.235912
18167.19922 0.235942
18168.85938 0.235972
18170.52930 0.236002
18172.18945 0.236029
18173.85938 0.236056
18175.52930 0.23608
18177.18945 0.2361
18178.85938 0.23612
18180.52930 0.236126
18182.18945 0.2361
18183.85938 0.236074
18185.52930 0.23607
18187.19922 0.236114
18188.85938 0.236157
18190.52930 0.23619
18192.19922 0.2362
18193.86914 0.236209
18195.53906 0.236224
18197.19922 0.236248
18198.86914 0.236273
18200.53906 0.236289
18202.21094 0.236289
18203.88086 0.236289
18205.55078 0.236274
18207.22070 0.236229
18208.89062 0.236185
18210.56055 0.236146
18212.23047 0.236121
18213.90039 0.236095
18215.57031 0.236075
18217.24023 0.236065
18218.91016 0.236056
18220.58008 0.236033
18222.25000 0.235988
18223.91992 0.235942
18225.58984 0.235897
18227.25977 0.235854
18228.92969 0.235812
18230.59961 0.235785
18232.27930 0.235787
18233.94922 0.23579
18235.61914 0.235776
18237.28906 0.235734
18238.96094 0.235693
18240.63086 0.235652
18242.31055 0.235611
18243.98047 0.235571
18245.65039 0.235521
18247.33008 0.235457
18249.00000 0.235394
18250.66992 0.235347
18252.34961 0.235326
18254.01953 0.235305
18255.68945 0.235268
18257.36914 0.235207
18259.03906 0.235147
18260.72070 0.23507
18262.39062 0.234974
18264.06055 0.234876
18265.74023 0.234802
18267.41016 0.234755
18269.08984 0.234708
18270.76953 0.234674
18272.43945 0.234655
18274.11914 0.234636
18275.78906 0.234601
18277.47070 0.23455
18279.14062 0.234499
18280.82031 0.234442
18282.49023 0.23438
18284.16992 0.234317
18285.84961 0.234244
18287.52930 0.23416
18289.19922 0.234076
18290.88086 0.234021
18292.55078 0.233993
18294.23047 0.233964
18295.91016 0.233931
18297.58984 0.233896
18299.26953 0.23386
18300.93945 0.233814
18302.61914 0.23376
18304.30078 0.233706
18305.98047 0.233666
18307.66016 0.233638
18309.33984 0.23361
18311.00977 0.233565
18312.68945 0.233508
18314.36914 0.233452
18316.05078 0.233392
18317.73047 0.233329
18319.41016 0.233267
18321.08984 0.23324
18322.76953 0.233233
18324.44922 0.233226
18326.13086 0.233192
18327.81055 0.233146
18329.49023 0.2331
18331.16992 0.233051
18332.84961 0.233001
18334.52930 0.232952
18336.21094 0.232925
18337.90039 0.232907
18339.58008 0.232889
18341.25977 0.232846
18342.93945 0.232794
18344.61914 0.232742
18346.30078 0.232686
18347.99023 0.232628
18349.66992 0.23257
18351.34961 0.23255
18353.03906 0.23254
18354.72070 0.23253
18356.40039 0.232525
18358.08008 0.23252
18359.76953 0.232515
18361.44922 0.232451
18363.13086 0.232377
18364.82031 0.232303
18366.50000 0.232245
18368.18945 0.232188
18369.86914 0.232132
18371.55078 0.232119
18373.24023 0.232111
18374.91992 0.232102
18376.60938 0.232081
18378.28906 0.23206
18379.98047 0.232038
18381.66016 0.231996
18383.34961 0.231952
18385.03906 0.231909
18386.72070 0.231872
18388.41016 0.231834
18390.08984 0.2318
18391.77930 0.231822
18393.46094 0.231845
18395.15039 0.231861
18396.83984 0.231817
18398.52930 0.231773
18400.21094 0.23173
18401.90039 0.231693
18403.58984 0.231655
18405.27930 0.231613
18406.96094 0.231548
18408.65039 0.231484
18410.33984 0.231432
18412.02930 0.231424
18413.71094 0.231417
18415.40039 0.231404
18417.08984 0.231371
18418.77930 0.231338
18420.47070 0.231294
18422.16016 0.231221
18423.84961 0.231149
18425.53906 0.231104
18427.23047 0.231118
18428.91992 0.231132
18430.60938 0.231138
18432.28906 0.231131
18433.98047 0.231124
18435.67969 0.231109
18437.36914 0.231081
18439.06055 0.231054
18440.75000 0.231053
18442.43945 0.231085
18444.13086 0.231116
18445.82031 0.231115
18447.50977 0.231079
18449.19922 0.231042
18450.89062 0.230999
18452.58984 0.230949
18454.27930 0.230899
18455.97070 0.230883
18457.66016 0.230891
18459.35938 0.2309
18461.05078 0.2309
18462.74023 0.230895
18464.42969 0.23089
18466.13086 0.230878
18467.82031 0.230861
18469.50977 0.230845
18471.21094 0.230871
18472.90039 0.230914
18474.58984 0.230957
18476.28906 0.230969
18477.98047 0.230972
18479.67969 0.230974
18481.36914 0.230964
18483.07031 0.230951
18484.75977 0.230938
18486.46094 0.230882
18488.15039 0.230818
18489.84961 0.230754
18491.53906 0.230808
18493.24023 0.230874
18494.92969 0.230939
18496.63086 0.230923
18498.32031 0.230903
18500.01953 0.230883
18501.72070 0.230909
18503.41016 0.230936
18505.10938 0.230961
18506.81055 0.230956
18508.50000 0.230952
18510.19922 0.230953
18511.90039 0.231002
18513.59961 0.23105
18515.28906 0.231097
18516.99023 0.231132
18518.68945 0.231168
18520.39062 0.231186
18522.08008 0.231145
18523.77930 0.231104
18525.48047 0.231098
18527.17969 0.231179
18528.88086 0.23126
18530.58008 0.231322
18532.27930 0.231346
18533.98047 0.23137
18535.67969 0.231387
18537.38086 0.231394
18539.07031 0.2314
18540.77930 0.231428
18542.47070 0.23148
18544.17969 0.231533
18545.88086 0.23157
18547.58008 0.231593
18549.27930 0.231616
18550.98047 0.231656
18552.67969 0.231709
18554.38086 0.231761
18556.08008 0.231813
18557.77930 0.231865
18559.48047 0.231917
18561.18945 0.231949
18562.89062 0.231973
18564.58984 0.231997
18566.28906 0.232027
18567.99023 0.23206
18569.69922 0.232092
18571.40039 0.232139
18573.09961 0.232189
18574.80078 0.23224
18576.50977 0.23228
18578.21094 0.232319
18579.91992 0.232358
18581.61914 0.232401
18583.32031 0.232444
18585.02930 0.232488
18586.73047 0.232548
18588.43945 0.232607
18590.14062 0.232666
18591.83984 0.232726
18593.55078 0.232786
18595.25000 0.232844
18596.96094 0.232892
18598.66016 0.232941
18600.36914 0.232998
18602.07031 0.233086
18603.77930 0.233174
18605.49023 0.233243
18607.18945 0.233266
18608.90039 0.233289
18610.60938 0.233323
18612.31055 0.233376
18614.01953 0.23343
18615.72070 0.233479
18617.42969 0.23352
18619.14062 0.233562
18620.84961 0.23362
18622.55078 0.233694
18624.25977 0.233769
18625.97070 0.233825
18627.67969 0.233868
18629.38086 0.233911
18631.08984 0.233962
18632.80078 0.234018
18634.50977 0.234073
18636.22070 0.234126
18637.92969 0.234178
18639.64062 0.23423
18641.34961 0.234289
18643.05078 0.23435
18644.75977 0.234411
18646.47070 0.234424
18648.17969 0.23443
18649.89062 0.234435
18651.59961 0.234535
18653.31055 0.234641
18655.01953 0.234746
18656.73047 0.234779
18658.44922 0.234812
18660.16016 0.234847
18661.86914 0.234895
18663.58008 0.234943
18665.28906 0.234999
18667.00000 0.235093
18668.71094 0.235186
18670.41992 0.235266
18672.14062 0.235302
18673.84961 0.235339
18675.56055 0.235392
18677.26953 0.23548
18678.98047 0.235567
18680.69922 0.235646
18682.41016 0.235713
18684.11914 0.235781
18685.83984 0.235853
18687.55078 0.23593
18689.25977 0.236007
18690.98047 0.23606
18692.68945 0.236095
18694.40039 0.23613
18696.11914 0.236174
18697.83008 0.236222
18699.55078 0.23627
18701.25977 0.23633
18702.98047 0.236395
18704.68945 0.236459
18706.41016 0.236568
18708.11914 0.236688
18709.83984 0.236807
18711.55078 0.236853
18713.26953 0.236891
18714.98047 0.236929
18716.69922 0.237032
18718.41992 0.237136
18720.13086 0.237234
18721.84961 0.237255
18723.57031 0.237275
18725.27930 0.237302
18727.00000 0.237359
18728.72070 0.237416
18730.43945 0.237483
18732.15039 0.237582
18733.86914 0.237681
18735.58984 0.237776
18737.31055 0.237862
18739.01953 0.237948
18740.74023 0.238016
18742.46094 0.238061
18744.17969 0.238106
18745.90039 0.238135
18747.61914 0.23815
18749.33984 0.238164
18751.05078 0.238221
18752.76953 0.238303
18754.49023 0.238386
18756.21094 0.238447
18757.92969 0.238498
18759.65039 0.238549
18761.36914 0.238606
18763.08984 0.238664
18764.81055 0.238722
18766.53906 0.238794
18768.25977 0.238868
18769.98047 0.238943
18771.69922 0.239008
18773.41992 0.239072
18775.14062 0.239136
18776.85938 0.239187
18778.58008 0.239237
18780.30078 0.239287
18782.02930 0.23933
18783.75000 0.239374
18785.47070 0.239418
18787.18945 0.239466
18788.91992 0.239515
18790.64062 0.239561
18792.35938 0.239602
18794.08984 0.239644
18795.81055 0.239679
18797.52930 0.239705
18799.25977 0.239731
18800.98047 0.2398
18802.69922 0.239899
18804.42969 0.239999
18806.15039 0.240069
18807.88086 0.240124
18809.59961 0.240178
18811.33008 0.240218
18813.05078 0.240254
18814.77930 0.240289
18816.50000 0.240356
18818.23047 0.240428
18819.94922 0.240499
18821.67969 0.240556
18823.40039 0.240612
18825.13086 0.240665
18826.85938 0.240668
18828.58008 0.240671
18830.31055 0.240682
18832.02930 0.240736
18833.75977 0.240789
18835.49023 0.240851
18837.21094 0.240934
18838.93945 0.241018
18840.66992 0.241088
18842.40039 0.241135
18844.11914 0.241183
18845.84961 0.241216
18847.58008 0.241234
18849.31055 0.241253
18851.03906 0.241285
18852.76953 0.241327
18854.49023 0.241369
18856.22070 0.241425
18857.94922 0.241488
18859.67969 0.241551
18861.41016 0.241574
18863.14062 0.241587
18864.86914 0.241601
18866.59961 0.24166
18868.33008 0.241722
18870.06055 0.241782
18871.78906 0.241765
18873.51953 0.241748
18875.25000 0.241743
18876.98047 0.241813
18878.71094 0.241884
18880.43945 0.241939
18882.16992 0.241949
18883.91016 0.241959
18885.64062 0.241969
18887.36914 0.241978
18889.09961 0.241986
18890.83008 0.242026
18892.56055 0.242099
18894.30078 0.242173
18896.02930 0.242188
18897.75977 0.242163
18899.49023 0.242139
18901.23047 0.242155
18902.96094 0.242187
18904.68945 0.24222
18906.42969 0.242286
18908.16016 0.242359
18909.89062 0.242432
18911.63086 0.242438
18913.35938 0.242441
18915.09961 0.242445
18916.83008 0.242481
18918.57031 0.242516
18920.30078 0.242544
18922.03906 0.242534
18923.76953 0.242524
18925.50977 0.242516
18927.24023 0.24251
18928.98047 0.242504
18930.71094 0.24252
18932.44922 0.242567
18934.17969 0.242615
18935.91992 0.242628
18937.66016 0.242613
18939.39062 0.242597
18941.13086 0.242575
18942.86914 0.24255
18944.59961 0.242524
18946.33984 0.24254
18948.08008 0.242567
18949.81055 0.242594
18951.55078 0.242594
18953.28906 0.24259
18955.02930 0.242588
18956.76953 0.242627
18958.50000 0.242667
18960.24023 0.242698
18961.98047 0.242675
18963.72070 0.242652
18965.46094 0.242643
18967.19922 0.242667
18968.93945 0.242692
18970.67969 0.242698
18972.41992 0.242674
18974.15039 0.242651
18975.89062 0.242623
18977.63086 0.242592
18979.36914 0.24256
18981.11914 0.24258
18982.85938 0.242628
18984.59961 0.242676
18986.33984 0.242682
18988.08008 0.242676
18989.82031 0.24267
18991.56055 0.242723
18993.30078 0.242782
18995.03906 0.242839
18996.78906 0.242837
18998.52930 0.242834
19000.26953 0.242831
19002.00977 0.242829
19003.75000 0.242826
19005.50000 0.242836
19007.24023 0.242878
19008.98047 0.24292
19010.72070 0.242975
19012.47070 0.243047
19014.21094 0.24312
19015.96094 0.243148
19017.69922 0.24314
19019.43945 0.243132
19021.18945 0.243136
19022.92969 0.243146
19024.66992 0.243157
19026.41992 0.243204
19028.16016 0.243259
19029.91016 0.243315
19031.65039 0.243323
19033.40039 0.243328
19035.14062 0.243339
19036.89062 0.243416
19038.63086 0.243493
19040.38086 0.243564
19042.13086 0.243611
19043.86914 0.243659
19045.61914 0.243693
19047.35938 0.243701
19049.10938 0.24371
19050.85938 0.243765
19052.59961 0.243869
19054.34961 0.243972
19056.09961 0.243975
19057.84961 0.243917
19059.58984 0.24386
19061.33984 0.243861
19063.08984 0.243881
19064.83984 0.243901
19066.58008 0.244014
19068.33008 0.244136
19070.08008 0.244249
19071.83008 0.244147
19073.58008 0.244046
19075.33008 0.243979
19077.08008 0.244061
19078.83008 0.244143
19080.57031 0.244206
19082.32031 0.244234
19084.07031 0.244261
19085.82031 0.244298
19087.57031 0.244344
19089.32031 0.244391
19091.07031 0.244429
19092.82031 0.244462
19094.58008 0.244495
19096.33008 0.244509
19098.08008 0.244517
19099.83008 0.244526
19101.58008 0.244579
19103.33008 0.244637
19105.08008 0.244695
19106.83008 0.244744
19108.58984 0.244794
19110.33984 0.244849
19112.08984 0.244924
19113.83984 0.244998
19115.59961 0.245063
19117.34961 0.245106
19119.09961 0.24515
19120.85938 0.245197
19122.60938 0.245246
19124.35938 0.245296
19126.11914 0.245313
19127.86914 0.245312
19129.61914 0.24531
19131.38086 0.245288
19133.13086 0.245261
19134.88086 0.245233
19136.64062 0.24532
19138.39062 0.245415
19140.15039 0.245506
19141.90039 0.245553
19143.66016 0.245599
19145.41016 0.245648
19147.16992 0.245703
19148.92969 0.245758
19150.67969 0.245802
19152.43945 0.245826
19154.18945 0.24585
19155.94922 0.245893
19157.71094 0.245952
19159.46094 0.246011
19161.22070 0.24607
19162.98047 0.246129
19164.73047 0.246189
19166.49023 0.246248
19168.25000 0.246308
19170.00977 0.246367
19171.75977 0.24641
19173.51953 0.246453
19175.27930 0.246498
19177.03906 0.246556
19178.80078 0.246615
19180.55078 0.246651
19182.31055 0.246639
19184.07031 0.246627
19185.83008 0.246635
19187.58984 0.246662
19189.34961 0.24669
19191.10938 0.246724
19192.86914 0.246762
19194.63086 0.2468
19196.39062 0.246832
19198.15039 0.246862
19199.91016 0.246892
19201.66992 0.246908
19203.42969 0.246924
19205.18945 0.246936
19206.94922 0.246927
19208.71094 0.246918
19210.47070 0.246916
19212.24023 0.246936
19214.00000 0.246956
19215.75977 0.246974
19217.51953 0.246989
19219.27930 0.247003
19221.05078 0.246988
19222.81055 0.246951
19224.57031 0.246915
19226.33008 0.246912
19228.09961 0.246919
19229.85938 0.246926
19231.61914 0.246927
19233.39062 0.246926
19235.15039 0.246924
19236.91016 0.246916
19238.67969 0.246906
19240.43945 0.2469
19242.21094 0.246901
19243.97070 0.246901
19245.73047 0.24692
19247.50000 0.246963
19249.25977 0.247006
19251.02930 0.247007
19252.78906 0.246978
19254.56055 0.246948
19256.33008 0.246936
19258.08984 0.24693
19259.85938 0.246924
19261.61914 0.246975
19263.39062 0.247031
19265.16016 0.247083
19266.91992 0.247079
19268.68945 0.247076
19270.46094 0.247073
19272.22070 0.247071
19273.99023 0.247069
19275.75977 0.247041
19277.51953 0.246977
19279.28906 0.246913
19281.06055 0.246904
19282.83008 0.246932
19284.59961 0.24696
19286.35938 0.246964
19288.13086 0.246961
19289.90039 0.246958
19291.66992 0.246884
19293.43945 0.246806
19295.21094 0.246737
19296.98047 0.24674
19298.75000 0.246743
19300.51953 0.246748
19302.28906 0.246757
19304.05078 0.246765
19305.83008 0.246749
19307.59961 0.246704
19309.36914 0.246659
19311.14062 0.246649
19312.91016 0.246658
19314.67969 0.246666
19316.44922 0.246621
19318.22070 0.246564
19319.99023 0.246507
19321.75977 0.246535
19323.53906 0.246564
19325.31055 0.246583
19327.08008 0.246556
19328.84961 0.246528
19330.61914 0.246508
19332.39062 0.2465
19334.16992 0.246493
19335.93945 0.246461
19337.71094 0.246407
19339.49023 0.246353
19341.25977 0.246362
19343.02930 0.246397
19344.81055 0.246432
19346.58008 0.246416
19348.35938 0.246394
19350.13086 0.246372
19351.90039 0.246355
19353.67969 0.246338
19355.44922 0.246312
19357.23047 0.24626
19359.00000 0.246207
19360.77930 0.246174
19362.55078 0.246168
19364.33008 0.246161
19366.09961 0.246159
19367.88086 0.246158
19369.65039 0.246158
19371.42969 0.246122
19373.21094 0.246079
19374.98047 0.246035
19376.75977 0.245981
19378.53906 0.245927
19380.31055 0.245874
19382.08984 0.245823
19383.86914 0.245773
19385.64062 0.245742
19387.41992 0.245747
19389.19922 0.245753
19390.98047 0.245741
19392.75977 0.245715
19394.53906 0.245689
19396.31055 0.245647
19398.08984 0.245599
19399.86914 0.245551
19401.65039 0.245522
19403.42969 0.245495
19405.21094 0.24547
19406.99023 0.245463
19408.76953 0.245456
19410.53906 0.245459
19412.32031 0.245485
19414.10938 0.24551
19415.88086 0.24551
19417.66992 0.245483
19419.44922 0.245457
19421.23047 0.245437
19423.00977 0.245419
19424.78906 0.245402
19426.57031 0.245409
19428.34961 0.245419
19430.13086 0.245429
19431.91016 0.24544
19433.69922 0.245451
19435.48047 0.245447
19437.25977 0.245401
19439.03906 0.245356
19440.82031 0.245319
19442.60938 0.245294
19444.39062 0.245269
19446.16992 0.245275
19447.96094 0.245299
19449.74023 0.245322
19451.51953 0.245271
19453.31055 0.245208
19455.08984 0.24515
19456.86914 0.245195
19458.66016 0.245241
19460.43945 0.245262
19462.23047 0.245209
19464.00977 0.245155
19465.78906 0.245123
19467.58008 0.245118
19469.36914 0.245114
19471.15039 0.245094
19472.93945 0.245066
19474.72070 0.245038
19476.50977 0.245025
19478.28906 0.245015
19480.08008 0.245003
19481.86914 0.244971
19483.65039 0.244939
19485.43945 0.244925
19487.22070 0.244966
19489.00977 0.245006
19490.80078 0.245016
19492.58984 0.244986
19494.36914 0.244956
19496.16016 0.244909
19497.94922 0.244852
19499.74023 0.244796
19501.51953 0.244781
19503.31055 0.244773
19505.09961 0.244766
19506.89062 0.244778
19508.67969 0.24479
19510.47070 0.244804
19512.25977 0.244824
19514.03906 0.244843
19515.83008 0.244865
19517.61914 0.24489
19519.41016 0.244915
19521.19922 0.244908
19522.99023 0.244884
19524.77930 0.244861
19526.57031 0.244867
19528.35938 0.244876
19530.15039 0.244886
19531.94922 0.244897
19533.73047 0.244909
19535.52930 0.244897
19537.32031 0.244827
19539.10938 0.244758
19540.90039 0.244728
19542.68945 0.244738
19544.48047 0.244748
19546.27930 0.244766
19548.07031 0.244786
19549.85938 0.244807
19551.65039 0.24477
19553.44922 0.244728
19555.24023 0.244694
19557.02930 0.244715
19558.83008 0.244736
19560.61914 0.244742
19562.41016 0.244719
19564.21094 0.244697
19566.00000 0.2447
19567.78906 0.244725
19569.58984 0.244749
19571.38086 0.24477
19573.17969 0.244789
19574.97070 0.244808
19576.76953 0.24479
19578.56055 0.244771
19580.35938 0.244761
19582.15039 0.244789
19583.94922 0.244816
19585.74023 0.244835
19587.53906 0.244839
19589.33984 0.244844
19591.13086 0.244829
19592.92969 0.244803
19594.72070 0.244776
19596.51953 0.24478
19598.32031 0.244789
19600.11914 0.244799
19601.91016 0.244834
19603.71094 0.244869
19605.50977 0.244903
19607.30078 0.244936
19609.09961 0.244969
19610.90039 0.244975
19612.69922 0.244954
19614.50000 0.244933
19616.30078 0.24495
19618.08984 0.244982
19619.89062 0.245015
19621.68945 0.244988
19623.49023 0.244958
19625.28906 0.244937
19627.08984 0.244958
19628.89062 0.24498
19630.68945 0.244997
19632.49023 0.245009
19634.28906 0.24502
19636.08984 0.245058
19637.89062 0.245112
19639.68945 0.245166
19641.49023 0.245173
19643.28906 0.24517
19645.08984 0.245164
19646.90039 0.245103
19648.69922 0.245042
19650.50000 0.245016
19652.30078 0.245081
19654.09961 0.245145
19655.90039 0.245176
19657.71094 0.245177
19659.50977 0.245177
19661.31055 0.245194
19663.11914 0.245217
19664.91992 0.24524
19666.72070 0.245276
19668.51953 0.245312
19670.33008 0.245342
19672.13086 0.245347
19673.93945 0.245352
19675.74023 0.24538
19677.53906 0.245439
19679.34961 0.245499
19681.15039 0.245546
19682.96094 0.245586
19684.75977 0.245626
19686.57031 0.245644
19688.36914 0.24566
19690.17969 0.245678
19691.98047 0.245724
19693.78906 0.24577
19695.58984 0.245806
19697.40039 0.245823
19699.21094 0.245841
19701.00977 0.245859
19702.82031 0.245878
19704.63086 0.245896
19706.42969 0.245915
19708.24023 0.245934
19710.03906 0.245953
19711.84961 0.245988
19713.66016 0.246023
19715.47070 0.246045
19717.27930 0.246033
19719.08008 0.24602
19720.89062 0.24605
19722.69922 0.246125
19724.50977 0.2462
19726.32031 0.246217
19728.11914 0.246212
19729.93945 0.246207
19731.74023 0.246231
19733.55078 0.246257
19735.35938 0.246281
19737.16992 0.2463
19738.98047 0.246318
19740.78906 0.246347
19742.59961 0.246388
19744.41016 0.24643
19746.22070 0.246465
19748.02930 0.246497
19749.83984 0.246529
19751.65039 0.246559
19753.46094 0.246589
19755.27930 0.246622
19757.08984 0.246671
19758.90039 0.246719
19760.71094 0.246779
19762.51953 0.246856
19764.33984 0.246932
19766.15039 0.246959
19767.96094 0.246958
19769.76953 0.246956
19771.58984 0.246983
19773.40039 0.247013
19775.21094 0.24706
19777.02930 0.247234
19778.83984 0.247409
19780.65039 0.247483
19782.46094 0.247378
19784.27930 0.247272
19786.08984 0.247307
19787.91016 0.247435
19789.72070 0.247563
19791.53906 0.247617
19793.34961 0.247657
19795.16992 0.247701
19796.98047 0.247782
19798.80078 0.247863
19800.60938 0.247908
19802.42969 0.247882
19804.24023 0.247856
19806.06055 0.247919
19807.86914 0.248045
19809.68945 0.248171
19811.50977 0.248199
19813.32031 0.248207
19815.14062 0.248217
19816.96094 0.248263
19818.77930 0.248309
19820.58984 0.248353
19822.41016 0.248394
19824.23047 0.248435
19826.03906 0.248527
19827.85938 0.248656
19829.67969 0.248785
19831.50000 0.248838
19833.32031 0.248874
19835.14062 0.248915
19836.96094 0.249003
19838.76953 0.249091
19840.58984 0.249183
19842.41016 0.249282
19844.23047 0.249381
19846.05078 0.24945
19847.86914 0.249497
19849.68945 0.249544
19851.50977 0.249627
19853.33008 0.249717
19855.15039 0.249799
19856.97070 0.24979
19858.78906 0.249781
19860.60938 0.249811
19862.43945 0.249919
19864.25977 0.250027
19866.08008 0.250113
19867.90039 0.250182
19869.72070 0.250251
19871.53906 0.250269
19873.36914 0.250279
19875.18945 0.250295
19877.00977 0.250363
19878.83008 0.250431
19880.65039 0.250495
19882.48047 0.250551
19884.30078 0.250608
19886.11914 0.250696
19887.94922 0.250802
19889.76953 0.250909
19891.59961 0.25097
19893.41992 0.251023
19895.24023 0.251076
19897.07031 0.251124
19898.89062 0.251171
19900.72070 0.251225
19902.53906 0.251289
19904.36914 0.251354
19906.18945 0.251393
19908.01953 0.251419
19909.83984 0.251444
19911.66992 0.251563
19913.49023 0.251692
19915.32031 0.251802
19917.14062 0.251832
19918.97070 0.251862
19920.80078 0.251908
19922.61914 0.251975
19924.44922 0.252042
19926.27930 0.252124
19928.10938 0.252213
19929.92969 0.252302
19931.75977 0.25239
19933.58984 0.252478
19935.41016 0.252542
19937.24023 0.252527
19939.07031 0.252512
19940.90039 0.252542
19942.73047 0.25262
19944.56055 0.252698
19946.38086 0.252765
19948.21094 0.252828
19950.03906 0.252891
19951.86914 0.252964
19953.69922 0.253038
19955.52930 0.253104
19957.35938 0.253155
19959.18945 0.253206
19961.01953 0.25325
19962.84961 0.253288
19964.67969 0.253327
19966.50977 0.253409
19968.33984 0.2535
19970.16992 0.253581
19972.00977 0.253566
19973.83984 0.253551
19975.66992 0.253572
19977.50000 0.253655
19979.33008 0.253737
19981.16016 0.253777
19983.00000 0.253792
19984.83008 0.253808
19986.66016 0.253967
19988.49023 0.254142
19990.33008 0.254292
19992.16016 0.25433
19993.99023 0.254369
19995.82031 0.254395
19997.66016 0.254406
19999.49023 0.254417
20001.33008 0.254551
20003.16016 0.254733
20004.99023 0.254915
20006.83008 0.25505
20008.66016 0.255186
20010.50000 0.255347
20012.33008 0.255577
20014.16992 0.255808
20016.00000 0.255942
20017.83984 0.255995
20019.66992 0.256049
20021.50977 0.25621
20023.33984 0.256395
20025.17969 0.256577
20027.01953 0.256738
20028.84961 0.256898
20030.68945 0.257031
20032.52930 0.257116
20034.35938 0.257202
20036.19922 0.257327
20038.03906 0.257473
20039.88086 0.257619
20041.71094 0.257712
20043.55078 0.257801
20045.39062 0.257906
20047.23047 0.25807
20049.06055 0.258235
20050.90039 0.258389
20052.74023 0.258532
20054.58008 0.258675
20056.41992 0.2588
20058.25977 0.25892
20060.09961 0.259042
20061.93945 0.259194
20063.77930 0.259347
20065.61914 0.259499
20067.46094 0.259649
20069.28906 0.2598
20071.13086 0.25995
20072.97070 0.260099
20074.82031 0.260249
20076.66016 0.260331
20078.50000 0.260405
20080.33984 0.260501
20082.17969 0.260694
20084.01953 0.260888
20085.85938 0.261026
20087.71094 0.261101
20089.55078 0.261176
20091.39062 0.261308
20093.23047 0.261458
20095.07031 0.261608
20096.91992 0.261731
20098.75977 0.261854
20100.59961 0.261979
20102.44922 0.262105
20104.28906 0.262231
20106.13086 0.262408
20107.97070 0.262617
20109.82031 0.262826
20111.66016 0.262912
20113.50977 0.262984
20115.34961 0.263072
20117.19922 0.263227
20119.03906 0.263382
20120.88086 0.263531
20122.73047 0.263672
20124.57031 0.263813
20126.41992 0.263933
20128.26953 0.264046
20130.10938 0.264158
20131.96094 0.264257
20133.80078 0.264357
20135.65039 0.264465
20137.49023 0.26459
20139.33984 0.264715
20141.18945 0.264826
20143.03906 0.264929
20144.88086 0.265032
20146.73047 0.26516
20148.58008 0.265291
20150.41992 0.26543
20152.26953 0.265599
20154.11914 0.265768
20155.97070 0.265893
20157.81055 0.265978
20159.66016 0.266063
20161.50977 0.266176
20163.35938 0.266295
20165.21094 0.266415
20167.06055 0.266546
20168.91016 0.266678
20170.75977 0.266797
20172.60938 0.266899
20174.46094 0.267001
20176.31055 0.267156
20178.16016 0.267333
20180.00977 0.26751
20181.85938 0.267647
20183.71094 0.267784
20185.56055 0.267923
20187.41016 0.268067
20189.25977 0.268211
20191.10938 0.268315
20192.96094 0.268394
20194.81055 0.268473
20196.66992 0.268557
20198.51953 0.268641
20200.36914 0.268728
20202.22070 0.268829
20204.07031 0.268928
20205.92969 0.269041
20207.77930 0.269166
20209.63086 0.269291
20211.49023 0.269384
20213.33984 0.269468
20215.18945 0.269554
20217.03906 0.269655
20218.90039 0.269755
20220.75000 0.269845
20222.60938 0.269919
20224.46094 0.269992
20226.32031 0.270142
20228.16992 0.270324
20230.02930 0.270504
20231.88086 0.27061
20233.74023 0.270715
20235.58984 0.270825
20237.44922 0.270943
20239.30078 0.271062
20241.16016 0.271156
20243.00977 0.271237
20244.86914 0.271317
20246.73047 0.271444
20248.58008 0.271575
20250.43945 0.271699
20252.30078 0.271799
20254.15039 0.271899
20256.00977 0.271993
20257.86914 0.272081
20259.72070 0.27217
20261.58008 0.272288
20263.43945 0.272413
20265.30078 0.272533
20267.16016 0.272635
20269.01953 0.272738
20270.86914 0.272848
20272.73047 0.272969
20274.58984 0.273089
20276.44922 0.273152
20278.31055 0.273199
20280.16992 0.273254
20282.02930 0.273396
20283.89062 0.273539
20285.75000 0.273681
20287.60938 0.273821
20289.47070 0.27396
20291.33008 0.274026
20293.18945 0.274063
20295.05078 0.274101
20296.91016 0.274216
20298.76953 0.274331
20300.63086 0.274437
20302.49023 0.274528
20304.35938 0.274618
20306.22070 0.27469
20308.08008 0.274751
20309.93945 0.274811
20311.80078 0.274872
20313.66992 0.274932
20315.52930 0.275013
20317.39062 0.275144
20319.25000 0.275276
20321.11914 0.275376
20322.98047 0.275456
20324.83984 0.275536
20326.71094 0.275626
20328.57031 0.275716
20330.43945 0.275807
20332.30078 0.275899
20334.16016 0.275992
20336.02930 0.276064
20337.89062 0.276119
20339.75977 0.276174
20341.61914 0.276313
20343.49023 0.276464
20345.34961 0.276608
20347.22070 0.276718
20349.08984 0.276829
20350.94922 0.276948
20352.82031 0.277075
20354.67969 0.277202
20356.55078 0.277299
20358.41992 0.27739
20360.27930 0.277473
20362.15039 0.277511
20364.01953 0.27755
20365.88086 0.277635
20367.75000 0.277772
20369.61914 0.277908
20371.49023 0.277986
20373.35938 0.278048
20375.22070 0.278109
20377.08984 0.278153
20378.96094 0.278196
20380.83008 0.278294
20382.69922 0.27846
20384.57031 0.278626
20386.43945 0.278672
20388.30078 0.278682
20390.16992 0.278704
20392.03906 0.278851
20393.91016 0.278999
20395.77930 0.279101
20397.65039 0.27914
20399.51953 0.279179
20401.39062 0.279294
20403.26953 0.279435
20405.13086 0.279574
20407.00977 0.279684
20408.88086 0.279794
20410.75000 0.279899
20412.61914 0.279995
20414.49023 0.280092
20416.35938 0.280205
20418.24023 0.280325
20420.10938 0.280446
20421.98047 0.280596
20423.84961 0.280746
20425.73047 0.280845
20427.59961 0.280864
20429.47070 0.280883
20431.34961 0.280987
20433.22070 0.281124
20435.08984 0.281264
20436.97070 0.281466
20438.83984 0.281668
20440.71094 0.281849
20442.58984 0.281994
20444.46094 0.28214
20446.33984 0.282228
20448.21094 0.282294
20450.08984 0.282362
20451.96094 0.28248
20453.83984 0.282599
20455.71094 0.282741
20457.58984 0.282923
20459.46094 0.283105
20461.33984 0.283245
20463.22070 0.283368
20465.08984 0.283493
20466.97070 0.283633
20468.84961 0.283774
20470.72070 0.283867
20472.59961 0.283885
20474.48047 0.283902
20476.34961 0.284023
20478.23047 0.284183
20480.10938 0.284339
20481.99023 0.284417
20483.86914 0.284494
20485.74023 0.284614
20487.61914 0.2848
20489.50000 0.284986
20491.38086 0.285099
20493.25977 0.285185
20495.14062 0.285272
20497.01953 0.285364
20498.90039 0.285456
20500.77930 0.285565
20502.65039 0.285698
20504.53906 0.285831
20506.41992 0.285955
20508.28906 0.286075
20510.17969 0.286199
20512.06055 0.286366
20513.93945 0.286533
20515.82031 0.286682
20517.69922 0.286809
20519.58008 0.286935
20521.46094 0.287054
20523.33984 0.287171
20525.23047 0.287277
20527.10938 0.287307
20528.99023 0.287337
20530.86914 0.2875
20532.75977 0.287819
20534.64062 0.288137
20536.51953 0.288213
20538.40039 0.288232
20540.28906 0.288258
20542.16992 0.288322
20544.05078 0.288387
20545.93945 0.2885
20547.82031 0.288663
20549.71094 0.288825
20551.58984 0.28892
20553.47070 0.289001
20555.35938 0.289092
20557.24023 0.289221
20559.13086 0.289351
20561.00977 0.289516
20562.90039 0.289711
20564.78906 0.289907
20566.66992 0.289933
20568.56055 0.289938
20570.43945 0.289998
20572.33008 0.290237
20574.21094 0.290476
20576.09961 0.290605
20577.99023 0.290657
20579.88086 0.290708
20581.75977 0.290889
20583.65039 0.29108
20585.53906 0.291239
20587.41992 0.291317
20589.31055 0.291396
20591.19922 0.29154
20593.08984 0.29172
20594.97070 0.291901
20596.85938 0.291961
20598.75000 0.292019
20600.64062 0.29213
20602.52930 0.292346
20604.41992 0.292563
20606.31055 0.292681
20608.19922 0.292757
20610.08984 0.292836
20611.98047 0.292997
20613.86914 0.293159
20615.75977 0.293311
20617.65039 0.293451
20619.53906 0.293591
20621.42969 0.293787
20623.32031 0.294
20625.21094 0.294209
20627.09961 0.294373
20628.99023 0.294537
20630.88086 0.294683
20632.77930 0.294809
20634.66992 0.294934
20636.56055 0.294995
20638.44922 0.295041
20640.34961 0.295113
20642.24023 0.295294
20644.13086 0.295476
20646.01953 0.295583
20647.91992 0.295626
20649.81055 0.295669
20651.69922 0.295924
20653.59961 0.296202
20655.49023 0.296429
20657.38086 0.296512
20659.27930 0.296594
20661.16992 0.296671
20663.07031 0.296745
20664.96094 0.296818
20666.85938 0.296987
20668.75000 0.297158
20670.65039 0.297305
20672.53906 0.297407
20674.43945 0.297509
20676.33008 0.297752
20678.23047 0.298055
20680.11914 0.298345
20682.01953 0.298439
20683.91992 0.298533
20685.81055 0.298618
20687.71094 0.298689
20689.60938 0.29876
20691.50977 0.299004
20693.40039 0.299293
20695.30078 0.299552
20697.19922 0.299651
20699.09961 0.299749
20700.99023 0.299876
20702.89062 0.300029
20704.78906 0.300183
20706.68945 0.300323
20708.58984 0.300463
20710.49023 0.30059
20712.38086 0.300683
20714.27930 0.300775
20716.17969 0.30087
20718.08008 0.300966
20719.98047 0.301062
20721.88086 0.301198
20723.77930 0.301335
20725.67969 0.301499
20727.58008 0.301714
20729.48047 0.30193
20731.38086 0.302051
20733.28906 0.302137
20735.18945 0.302225
20737.08984 0.302331
20738.99023 0.302438
20740.89062 0.302552
20742.78906 0.302674
20744.68945 0.302797
20746.59961 0.302943
20748.50000 0.303094
20750.40039 0.303234
20752.30078 0.303332
20754.21094 0.303431
20756.10938 0.303565
20758.00977 0.303724
20759.91992 0.303884
20761.82031 0.304039
20763.72070 0.304193
20765.63086 0.304375
20767.52930 0.304613
20769.43945 0.304851
20771.33984 0.304958
20773.24023 0.305011
20775.15039 0.305068
20777.05078 0.305183
20778.96094 0.305298
20780.86914 0.305424
20782.76953 0.305564
20784.67969 0.305703
20786.58008 0.30578
20788.49023 0.305844
20790.39062 0.305929
20792.30078 0.306096
20794.21094 0.306263
20796.10938 0.306411
20798.01953 0.306545
20799.92969 0.306679
20801.83008 0.306861
20803.74023 0.307045
20805.65039 0.307219
20807.56055 0.307374
20809.46094 0.30753
20811.36914 0.307706
20813.27930 0.307889
20815.18945 0.30808
20817.09961 0.308333
20819.00977 0.308586
20820.91992 0.30876
20822.82031 0.308848
20824.73047 0.308936
20826.64062 0.309073
20828.55078 0.309217
20830.46094 0.309364
20832.36914 0.309517
20834.27930 0.309671
20836.18945 0.309819
20838.09961 0.309963
20840.00977 0.310108
20841.92969 0.310221
20843.83984 0.310335
20845.75000 0.310474
20847.66016 0.310651
20849.57031 0.310828
20851.48047 0.311038
20853.39062 0.311258
20855.31055 0.311475
20857.22070 0.311678
20859.13086 0.311881
20861.03906 0.311984
20862.96094 0.312005
20864.86914 0.312025
20866.77930 0.312245
20868.69922 0.312479
20870.60938 0.312703
20872.51953 0.312904
20874.43945 0.313106
20876.34961 0.31323
20878.26953 0.313323
20880.17969 0.313426
20882.08984 0.313634
20884.00977 0.313843
20885.91992 0.31402
20887.83984 0.314163
20889.75000 0.314306
20891.66992 0.31452
20893.58984 0.314745
20895.50000 0.314918
20897.41992 0.314947
20899.33008 0.314975
20901.25000 0.315107
20903.16992 0.315295
20905.08008 0.31548
20907.00000 0.315611
20908.91992 0.315741
20910.83008 0.315895
20912.75000 0.31608
20914.66992 0.316264
20916.58984 0.316376
20918.50000 0.316474
20920.41992 0.316571
20922.33984 0.316666
20924.25977 0.316762
20926.17969 0.316978
20928.09961 0.317271
20930.01953 0.317563
20931.92969 0.31769
20933.84961 0.317817
20935.76953 0.317943
20937.68945 0.318069
20939.60938 0.318194
20941.52930 0.318374
20943.44922 0.318568
20945.36914 0.318734
20947.28906 0.318786
20949.21094 0.318839
20951.13086 0.318971
20953.06055 0.319158
20954.98047 0.319345
20956.90039 0.319507
20958.82031 0.319669
20960.74023 0.319801
20962.66016 0.319885
20964.58984 0.319969
20966.50977 0.320126
20968.42969 0.320304
20970.34961 0.320463
20972.27930 0.320545
20974.19922 0.320626
20976.11914 0.320775
20978.05078 0.320972
20979.97070 0.321169
20981.89062 0.321256
20983.82031 0.321342
20985.74023 0.321441
20987.66992 0.321558
20989.58984 0.321676
20991.51953 0.321878
20993.43945 0.322103
20995.36914 0.322311
20997.28906 0.322445
20999.21094 0.322579
21001.14062 0.322613
21003.07031 0.322578
21004.99023 0.322544
21006.91992 0.322549
21008.83984 0.322555
21010.76953 0.32258
21012.69922 0.322636
21014.61914 0.322691
21016.55078 0.322703
21018.48047 0.322703
21020.40039 0.322714
21022.33008 0.322763
21024.25977 0.322813
21026.18945 0.322822
21028.11914 0.322806
21030.03906 0.32279
21031.97070 0.322748
21033.90039 0.322707
21035.83008 0.322748
21037.75977 0.322897
21039.68945 0.323046
21041.61914 0.323085
21043.53906 0.323103
21045.47070 0.323103
21047.40039 0.323053
21049.33008 0.323003
21051.25977 0.323035
21053.19922 0.323109
21055.11914 0.323175
21057.06055 0.323127
21058.99023 0.323079
21060.91992 0.323068
21062.84961 0.323099
21064.77930 0.323129
21066.71094 0.323163
21068.64062 0.323196
21070.57031 0.3232
21072.50977 0.323131
21074.43945 0.323062
21076.36914 0.323056
21078.30078 0.323077
21080.24023 0.323096
21082.16992 0.323108
21084.09961 0.323119
21086.03906 0.323119
21087.97070 0.323109
21089.90039 0.323099
21091.83984 0.323175
21093.76953 0.323256
21095.71094 0.323246
21097.64062 0.323076
21099.57031 0.322907
21101.50977 0.322977
21103.43945 0.323114
21105.38086 0.32322
21107.31055 0.323198
21109.25000 0.323176
21111.17969 0.323173
21113.11914 0.32318
21115.06055 0.323188
21116.99023 0.323209
21118.92969 0.32323
21120.86914 0.323213
21122.80078 0.32315
21124.74023 0.323087
21126.67969 0.323073
21128.60938 0.323067
21130.55078 0.323082
21132.49023 0.323151
21134.42969 0.323219
21136.35938 0.323226
21138.30078 0.323206
21140.24023 0.323181
21142.17969 0.323117
21144.11914 0.323053
21146.05078 0.323012
21147.99023 0.32299
21149.92969 0.322969
21151.86914 0.322854
21153.81055 0.322735
21155.75000 0.322703
21157.68945 0.322805
21159.63086 0.322908
21161.57031 0.322844
21163.50977 0.32274
21165.44922 0.322651
21167.39062 0.322607
21169.33008 0.322562
21171.27930 0.322568
21173.22070 0.322599
21175.16016 0.322613
21177.09961 0.322435
21179.03906 0.322256
21180.98047 0.322226
21182.92969 0.32234
21184.86914 0.322454
21186.81055 0.322375
21188.75000 0.322281
21190.69922 0.322223
21192.64062 0.32223
21194.58008 0.322238
21196.52930 0.322173
21198.47070 0.322089
21200.41016 0.322021
21202.35938 0.322012
21204.30078 0.322004
21206.24023 0.321951
21208.18945 0.321873
21210.13086 0.321803
21212.08008 0.321827
21214.01953 0.321852
21215.97070 0.321873
21217.91016 0.321892
21219.85938 0.321911
21221.80078 0.321873
21223.75000 0.32183
21225.69922 0.321802
21227.64062 0.321801
21229.58984 0.321799
21231.53906 0.321765
21233.48047 0.321723
21235.42969 0.321701
21237.38086 0.32175
21239.32031 0.321799
21241.26953 0.321756
21243.22070 0.321665
21245.16992 0.321574
21247.11914 0.321488
21249.06055 0.321402
21251.00977 0.321324
21252.96094 0.321253
21254.91016 0.321182
21256.85938 0.321275
21258.81055 0.321377
21260.75977 0.321413
21262.71094 0.321344
21264.66016 0.321275
21266.60938 0.321226
21268.55078 0.321181
21270.50977 0.321123
21272.46094 0.32103
21274.41016 0.320937
21276.35938 0.320894
21278.31055 0.320873
21280.25977 0.320849
21282.21094 0.320807
21284.16016 0.320765
21286.10938 0.320713
21288.06055 0.320653
21290.01953 0.320594
21291.97070 0.32063
21293.91992 0.320667
21295.88086 0.320632
21297.83008 0.320508
21299.77930 0.320383
21301.73047 0.320439
21303.68945 0.320518
21305.64062 0.32053
21307.58984 0.320403
21309.55078 0.320275
21311.50000 0.320177
21313.46094 0.320086
21315.41016 0.320022
21317.35938 0.320057
21319.32031 0.320092
21321.26953 0.320096
21323.23047 0.320083
21325.17969 0.32006
21327.14062 0.319943
21329.08984 0.319826
21331.05078 0.319719
21333.00977 0.319622
21334.96094 0.319524
21336.91992 0.319489
21338.86914 0.319455
21340.83008 0.319422
21342.78906 0.319389
21344.74023 0.319356
21346.69922 0.31933
21348.66016 0.319304
21350.61914 0.319271
21352.57031 0.31922
21354.52930 0.319169
21356.49023 0.319059
21358.44922 0.318931
21360.41016 0.318824
21362.36914 0.318796
21364.32031 0.318768
21366.27930 0.31875
21368.24023 0.318737
21370.19922 0.318721
21372.16016 0.318673
21374.11914 0.318624
21376.08008 0.318617
21378.03906 0.318642
21380.00000 0.318668
21381.96094 0.318621
21383.91992 0.318573
21385.88086 0.318522
21387.83984 0.318465
21389.80078 0.318409
21391.76953 0.318212
21393.73047 0.318
21395.68945 0.317864
21397.65039 0.31787
21399.60938 0.317876
21401.57031 0.317873
21403.53906 0.317867
21405.50000 0.317853
21407.46094 0.317815
21409.42969 0.317777
21411.39062 0.317646
21413.34961 0.317475
21415.31055 0.317334
21417.27930 0.317348
21419.24023 0.317362
21421.21094 0.317266
21423.16992 0.3171
21425.13086 0.316945
21427.09961 0.316935
21429.06055 0.316926
21431.02930 0.316895
21432.99023 0.316844
21434.96094 0.316793
21436.92969 0.316784
21438.89062 0.316776
21440.85938 0.316735
21442.82031 0.316654
21444.78906 0.316572
21446.75977 0.316518
21448.72070 0.316467
21450.68945 0.316413
21452.65039 0.316354
21454.61914 0.316295
21456.58984 0.316156
21458.56055 0.315998
21460.51953 0.315886
21462.49023 0.315903
21464.46094 0.315919
21466.42969 0.315904
21468.40039 0.315878
21470.36914 0.315852
21472.33008 0.315829
21474.30078 0.315807
21476.26953 0.315842
21478.24023 0.315908
21480.21094 0.315949
21482.17969 0.315777
21484.15039 0.315605
21486.11914 0.315517
21488.08984 0.315492
21490.06055 0.315469
21492.02930 0.315497
21494.00000 0.315525
21495.97070 0.315514
21497.93945 0.315465
21499.91016 0.315415
21501.88086 0.315426
21503.85938 0.315439
21505.83008 0.315437
21507.80078 0.315413
21509.76953 0.315389
21511.74023 0.3154
21513.72070 0.315416
21515.68945 0.3154
21517.66016 0.315325
21519.64062 0.315249
21521.60938 0.31526
21523.58008 0.31529
21525.56055 0.315298
21527.52930 0.315248
21529.50000 0.315198
21531.48047 0.315211
21533.44922 0.315244
21535.42969 0.315267
21537.40039 0.315257
21539.38086 0.315247
21541.34961 0.315235
21543.33008 0.315222
21545.30078 0.315214
21547.27930 0.315228
21549.25000 0.315242
21551.23047 0.315293
21553.21094 0.315366
21555.17969 0.315429
21557.16016 0.315391
21559.13086 0.315352
21561.10938 0.315364
21563.08984 0.315415
21565.06055 0.315466
21567.03906 0.315531
21569.01953 0.315597
21571.00000 0.315642
21572.98047 0.315668
21574.94922 0.315694
21576.92969 0.315648
21578.91016 0.315599
21580.89062 0.315608
21582.86914 0.315689
21584.84961 0.315769
21586.83008 0.315807
21588.80078 0.31584
21590.78906 0.315854
21592.75977 0.315836
21594.74023 0.315819
21596.72070 0.315903
21598.71094 0.316002
21600.68945 0.316053
21602.66992 0.316013
21604.65039 0.315973
21606.63086 0.315956
21608.60938 0.315943
21610.58984 0.315975
21612.57031 0.316113
21614.55078 0.316251
21616.53906 0.316229
21618.51953 0.31616
21620.50000 0.316107
21622.48047 0.3161
21624.46094 0.316094
21626.44922 0.316102
21628.42969 0.316115
21630.41016 0.316139
21632.40039 0.316202
21634.38086 0.316265
21636.35938 0.316302
21638.34961 0.316327
21640.33008 0.316336
21642.32031 0.316262
21644.30078 0.316187
21646.28906 0.316238
21648.26953 0.316357
21650.25977 0.31646
21652.24023 0.316455
21654.23047 0.31645
21656.21094 0.316499
21658.19922 0.31658
21660.17969 0.316651
21662.16992 0.316619
21664.15039 0.316588
21666.14062 0.316602
21668.13086 0.316651
21670.11914 0.316702
21672.09961 0.3168
21674.08984 0.316897
21676.08008 0.316943
21678.06055 0.316945
21680.05078 0.316949
21682.03906 0.317046
21684.02930 0.317142
21686.01953 0.317173
21688.00000 0.317141
21689.99023 0.317109
21691.98047 0.317144
21693.97070 0.31718
21695.96094 0.317174
21697.94922 0.317125
21699.93945 0.317075
21701.92969 0.317152
21703.91992 0.317233
21705.91016 0.317299
21707.90039 0.317348
21709.89062 0.317396
21711.88086 0.317515
21713.86914 0.317638
21715.85938 0.317724
21717.84961 0.317761
21719.83984 0.317798
21721.83984 0.317935
21723.83008 0.318082
21725.82031 0.318196
21727.81055 0.318263
21729.80078 0.318329
21731.80078 0.318395
21733.78906 0.31846
21735.77930 0.318502
21737.77930 0.318508
21739.76953 0.318514
21741.75977 0.318614
21743.75977 0.318727
21745.75000 0.318815
21747.74023 0.318862
21749.74023 0.318909
21751.73047 0.319043
21753.73047 0.31919
21755.72070 0.319308
21757.71094 0.319376
21759.71094 0.319443
21761.71094 0.319476
21763.69922 0.319505
21765.69922 0.319549
21767.68945 0.319622
21769.68945 0.319697
21771.67969 0.319742
21773.67969 0.319781
21775.67969 0.319835
21777.66992 0.319915
21779.66992 0.319996
21781.66992 0.319956
21783.66016 0.319893
21785.66016 0.319903
21787.66016 0.320062
21789.66016 0.320221
21791.66016 0.320252
21793.65039 0.320255
21795.65039 0.320289
21797.65039 0.320385
21799.65039 0.320481
21801.65039 0.320566
21803.65039 0.320649
21805.65039 0.320739
21807.65039 0.320844
21809.64062 0.320949
21811.64062 0.320947
21813.64062 0.320922
21815.64062 0.32092
21817.64062 0.320964
21819.65039 0.321008
21821.65039 0.321061
21823.65039 0.321116
21825.65039 0.321162
21827.65039 0.321187
21829.65039 0.321211
21831.65039 0.321125
21833.65039 0.321014
21835.66016 0.320924
21837.66016 0.320877
21839.66016 0.320829
21841.66016 0.320883
21843.66992 0.320957
21845.66992 0.32097
21847.66992 0.320861
21849.67969 0.320753
21851.67969 0.320702
21853.67969 0.320663
21855.68945 0.320644
21857.68945 0.320663
21859.69922 0.320682
21861.69922 0.320584
21863.69922 0.320466
21865.71094 0.320406
21867.71094 0.320451
21869.72070 0.320495
21871.72070 0.32037
21873.73047 0.320217
21875.73047 0.3201
21877.74023 0.320044
21879.75000 0.319989
21881.75000 0.319877
21883.75977 0.319758
21885.76953 0.319642
21887.76953 0.319532
21889.77930 0.319422
21891.78906 0.319274
21893.78906 0.319121
21895.80078 0.318959
21897.81055 0.318781
21899.82031 0.318603
21901.82031 0.318439
21903.83008 0.318277
21905.83984 0.318086
21907.84961 0.317854
21909.85938 0.317623
21911.86914 0.317386
21913.88086 0.317148
21915.89062 0.31692
21917.90039 0.316705
21919.91016 0.316489
21921.91992 0.316206
21923.92969 0.315919
21925.93945 0.315642
21927.94922 0.315376
21929.96094 0.315109
21931.97070 0.314793
21933.98047 0.314476
21935.99023 0.314147
21938.00000 0.313806
21940.00977 0.313466
21942.02930 0.313187
21944.03906 0.312908
21946.05078 0.312578
21948.06055 0.312199
21950.07031 0.311822
21952.08984 0.311501
21954.09961 0.31118
21956.10938 0.310773
21958.13086 0.310294
21960.14062 0.309822
21962.15039 0.309445
21964.16992 0.309067
21966.17969 0.308632
21968.18945 0.308156
21970.21094 0.30768
21972.22070 0.3072
21974.24023 0.306719
21976.25000 0.306299
21978.26953 0.305914
21980.27930 0.30553
21982.30078 0.305154
21984.31055 0.304778
21986.33008 0.304307
21988.34961 0.303788
21990.35938 0.303282
21992.38086 0.302838
21994.39062 0.302395
21996.41016 0.301903
21998.42969 0.301391
22000.44922 0.300907
22002.46094 0.300523
22004.48047 0.300139
22006.50000 0.299779
22008.51953 0.299428
22010.52930 0.29905
22012.55078 0.2986
22014.57031 0.29815
22016.58984 0.29772
22018.60938 0.297297
22020.63086 0.296889
22022.65039 0.296517
22024.66016 0.296146
22026.67969 0.295662
22028.69922 0.295156
22030.72070 0.294713
22032.74023 0.294383
22034.75977 0.294054
22036.78906 0.293662
22038.80078 0.293262
22040.83008 0.292851
22042.84961 0.292426
22044.86914 0.292001
22046.89062 0.291654
22048.91016 0.291311
22050.92969 0.290974
22052.96094 0.290644
22054.98047 0.290314
22057.00000 0.290058
22059.01953 0.289803
22061.03906 0.28952
22063.07031 0.289211
22065.08984 0.288898
22067.10938 0.288522
22069.14062 0.288146
22071.16016 0.287827
22073.17969 0.287551
22075.21094 0.287283
22077.23047 0.287083
22079.25977 0.286882
22081.27930 0.286608
22083.30078 0.286292
22085.33008 0.285976
22087.35938 0.285663
22089.38086 0.285351
22091.41016 0.28515
22093.42969 0.284998
22095.46094 0.28484
22097.48047 0.284657
22099.50977 0.284475
22101.53906 0.284234
22103.56055 0.283975
22105.58984 0.283723
22107.61914 0.283489
22109.64062 0.283255
22111.66992 0.283015
22113.69922 0.282774
22115.73047 0.282567
22117.75000 0.282422
22119.77930 0.282277
22121.81055 0.282031
22123.83984 0.281773
22125.86914 0.28155
22127.90039 0.281373
22129.91992 0.281198
22131.94922 0.281148
22133.98047 0.281103
22136.00977 0.280941
22138.03906 0.280663
22140.07031 0.280387
22142.09961 0.280165
22144.13086 0.279944
22146.16016 0.279826
22148.18945 0.279786
22150.22070 0.279727
22152.25977 0.279519
22154.28906 0.279311
22156.32031 0.27912
22158.34961 0.27894
22160.38086 0.278769
22162.41016 0.278636
22164.44922 0.278504
22166.48047 0.278379
22168.50977 0.278258
22170.53906 0.278134
22172.58008 0.278004
22174.60938 0.277875
22176.64062 0.277708
22178.67969 0.277531
22180.71094 0.277369
22182.74023 0.277233
22184.77930 0.277097
22186.81055 0.276928
22188.84961 0.276754
22190.88086 0.27657
22192.91016 0.276374
22194.94922 0.276177
22196.98047 0.276076
22199.01953 0.275978
22201.05078 0.275818
22203.08984 0.2756
22205.13086 0.275387
22207.16016 0.275246
22209.19922 0.275104
22211.24023 0.275013
22213.26953 0.274954
22215.31055 0.274874
22217.34961 0.274673
22219.38086 0.274472
22221.41992 0.274283
22223.46094 0.274099
22225.50000 0.273949
22227.52930 0.273904
22229.57031 0.273859
22231.60938 0.273709
22233.65039 0.27353
22235.68945 0.273365
22237.73047 0.273227
22239.76953 0.273089
22241.80078 0.272896
22243.83984 0.272695
22245.88086 0.272484
22247.91992 0.27226
22249.96094 0.272036
22252.00000 0.271921
22254.03906 0.271809
22256.08008 0.271645
22258.13086 0.271437
22260.16992 0.27123
22262.21094 0.27104
22264.25000 0.27085
22266.28906 0.270676
22268.33008 0.270512
22270.36914 0.270333
22272.41992 0.270086
22274.46094 0.269839
22276.50000 0.269627
22278.53906 0.269427
22280.58984 0.269263
22282.63086 0.269186
22284.66992 0.269108
22286.71094 0.268813
22288.75977 0.268476
22290.80078 0.268205
22292.84961 0.268035
22294.89062 0.267864
22296.92969 0.267709
22298.98047 0.267555
22301.01953 0.267349
22303.07031 0.267092
22305.10938 0.266832
22307.16016 0.266538
22309.19922 0.266243
22311.25000 0.266043
22313.28906 0.265903
22315.33984 0.265742
22317.39062 0.265475
22319.42969 0.265208
22321.48047 0.264997
22323.52930 0.264807
22325.57031 0.264592
22327.61914 0.264313
22329.66992 0.264033
22331.71094 0.263844
22333.75977 0.263672
22335.81055 0.263497
22337.85938 0.263319
22339.91016 0.263141
22341.96094 0.262865
22344.00000 0.262585
22346.05078 0.262325
22348.09961 0.262086
22350.15039 0.261846
22352.19922 0.261602
22354.25000 0.261358
22356.30078 0.261142
22358.34961 0.260943
22360.40039 0.260756
22362.44922 0.260626
22364.50000 0.260495
22366.55078 0.260242
22368.59961 0.25995
22370.65039 0.259663
22372.71094 0.259388
22374.75977 0.259113
22376.81055 0.258887
22378.85938 0.258667
22380.91016 0.258506
22382.96094 0.258415
22385.01953 0.258323
22387.07031 0.258012
22389.11914 0.2577
22391.16992 0.257493
22393.23047 0.257366
22395.27930 0.257214
22397.33008 0.256898
22399.39062 0.256583
22401.43945 0.256405
22403.49023 0.256285
22405.55078 0.256174
22407.59961 0.256086
22409.66016 0.255997
22411.71094 0.255871
22413.76953 0.255736
22415.82031 0.255621
22417.88086 0.255538
22419.92969 0.255454
22421.99023 0.255276
22424.03906 0.255095
22426.09961 0.254963
22428.16016 0.254874
22430.21094 0.254793
22432.26953 0.25478
22434.33008 0.254768
22436.38086 0.254641
22438.43945 0.254459
22440.50000 0.254279
22442.56055 0.254104
22444.61914 0.253931
22446.66992 0.253885
22448.73047 0.25387
22450.78906 0.253804
22452.84961 0.253658
22454.91016 0.253512
22456.97070 0.253475
22459.02930 0.253443
22461.08008 0.253433
22463.14062 0.253443
22465.19922 0.253448
22467.25977 0.253408
22469.32031 0.253369
22471.38086 0.253297
22473.44922 0.253208
22475.50977 0.253181
22477.57031 0.253346
22479.63086 0.25351
22481.68945 0.253551
22483.75000 0.253563
22485.81055 0.253533
22487.86914 0.253435
22489.93945 0.253338
22492.00000 0.253482
22494.06055 0.253634
22496.11914 0.253676
22498.18945 0.253624
22500.25000 0.253598
22502.31055 0.253752
22504.36914 0.253907
22506.43945 0.253958
22508.50000 0.253965
22510.56055 0.253984
22512.63086 0.254038
22514.68945 0.254092
22516.75977 0.254257
22518.82031 0.254441
22520.89062 0.254545
22522.94922 0.254544
22525.01953 0.254545
22527.08008 0.254788
22529.15039 0.25503
22531.21094 0.25523
22533.27930 0.255401
22535.34961 0.255573
22537.41016 0.255751
22539.48047 0.25593
22541.55078 0.256186
22543.60938 0.256468
22545.67969 0.25667
22547.75000 0.256713
22549.81055 0.256755
22551.88086 0.257054
22553.94922 0.257378
22556.01953 0.257705
22558.08984 0.258034
22560.15039 0.25835
22562.22070 0.258503
22564.28906 0.258656
22566.35938 0.258936
22568.42969 0.259284
22570.50000 0.259612
22572.57031 0.259881
22574.64062 0.26015
22576.71094 0.260437
22578.77930 0.260728
22580.84961 0.261063
22582.91992 0.26146
22584.99023 0.261858
22587.06055 0.262172
22589.13086 0.262487
22591.19922 0.262811
22593.27930 0.263144
22595.34961 0.263512
22597.41992 0.264056
22599.49023 0.264601
22601.56055 0.264977
22603.63086 0.265296
22605.71094 0.265618
22607.77930 0.265941
22609.84961 0.266264
22611.92969 0.266836
22614.00000 0.267428
22616.07031 0.267894
22618.15039 0.268242
22620.22070 0.268625
22622.28906 0.269289
22624.36914 0.269954
22626.43945 0.27052
22628.51953 0.271042
22630.58984 0.271539
22632.66992 0.271972
22634.74023 0.272406
22636.82031 0.273115
22638.89062 0.273863
22640.97070 0.274478
22643.05078 0.274942
22645.11914 0.275418
22647.19922 0.276078
22649.27930 0.276739
22651.34961 0.277296
22653.42969 0.277796
22655.50977 0.278365
22657.58008 0.279152
22659.66016 0.279938
22661.74023 0.280598
22663.82031 0.281234
22665.89062 0.281839
22667.97070 0.282406
22670.05078 0.282977
22672.13086 0.283751
22674.21094 0.284525
22676.28906 0.285248
22678.36914 0.28594
22680.44922 0.286636
22682.52930 0.287346
22684.60938 0.288057
22686.68945 0.288808
22688.76953 0.289568
22690.84961 0.290356
22692.92969 0.291181
22695.00977 0.292007
22697.08984 0.292692
22699.16992 0.293377
22701.25000 0.294119
22703.33008 0.294899
22705.41992 0.295699
22707.50000 0.296577
22709.58008 0.297456
22711.66016 0.298372
22713.74023 0.299298
22715.83008 0.300173
22717.91016 0.300971
22719.99023 0.301769
22722.08008 0.302471
22724.16016 0.303173
22726.24023 0.304019
22728.33008 0.304963
22730.41016 0.305891
22732.50000 0.306754
22734.58008 0.307616
22736.66016 0.308516
22738.75000 0.309427
22740.83008 0.310298
22742.91992 0.311114
22745.00000 0.311929
22747.08984 0.3127
22749.17969 0.313472
22751.25977 0.314355
22753.34961 0.315312
22755.42969 0.316263
22757.51953 0.317193
22759.60938 0.318122
22761.69922 0.31893
22763.77930 0.319709
22765.86914 0.320488
22767.96094 0.321265
22770.03906 0.322043
22772.13086 0.322841
22774.22070 0.323639
22776.31055 0.324416
22778.40039 0.32518
22780.48047 0.325931
22782.57031 0.326643
22784.66016 0.327355
22786.75000 0.327964
22788.83984 0.328553
22790.92969 0.329225
22793.01953 0.330001
22795.10938 0.33076
22797.19922 0.331222
22799.28906 0.331683
22801.38086 0.332263
22803.47070 0.332904
22805.56055 0.333476
22807.65039 0.33386
22809.75000 0.334244
22811.83984 0.334645
22813.92969 0.33505
22816.01953 0.335418
22818.10938 0.335748
22820.21094 0.336065
22822.30078 0.336267
22824.39062 0.336469
22826.48047 0.336627
22828.58008 0.336769
22830.66992 0.336905
22832.75977 0.337029
22834.85938 0.337153
22836.94922 0.337111
22839.03906 0.337058
22841.14062 0.336956
22843.23047 0.336815
22845.33008 0.336671
22847.41992 0.336516
22849.51953 0.336361
22851.60938 0.335997
22853.71094 0.33557
22855.80078 0.335118
22857.90039 0.334628
22859.99023 0.334138
22862.08984 0.333518
22864.18945 0.332899
22866.27930 0.332247
22868.38086 0.331576
22870.48047 0.330836
22872.57031 0.329868
22874.66992 0.328901
22876.76953 0.327781
22878.86914 0.326632
22880.96094 0.325485
22883.06055 0.324337
22885.16016 0.323181
22887.25977 0.32191
22889.35938 0.320636
22891.46094 0.319275
22893.55078 0.317872
22895.65039 0.316417
22897.75000 0.314846
22899.84961 0.313274
22901.94922 0.311634
22904.05078 0.30999
22906.15039 0.308186
22908.25000 0.306252
22910.34961 0.304287
22912.44922 0.302181
22914.55078 0.300073
22916.66016 0.298031
22918.75977 0.296005
22920.85938 0.29393
22922.96094 0.291782
22925.06055 0.289629
22927.16016 0.287318
22929.26953 0.285005
22931.36914 0.282594
22933.47070 0.280127
22935.57031 0.277624
22937.67969 0.27502
22939.77930 0.272416
22941.88086 0.269721
22943.99023 0.267015
22946.08984 0.26431
22948.19922 0.261607
22950.30078 0.25892
22952.40039 0.256337
22954.50977 0.253755
22956.60938 0.251024
22958.72070 0.248248
22960.82031 0.245481
22962.92969 0.242729
22965.03906 0.239975
22967.14062 0.237089
22969.25000 0.234203
22971.34961 0.231243
22973.46094 0.22824
22975.56055 0.225254
22977.66992 0.222305
22979.77930 0.219356
22981.88086 0.216534
22983.99023 0.213725
22986.09961 0.210981
22988.21094 0.208297
22990.32031 0.205584
22992.41992 0.202721
22994.52930 0.199858
22996.64062 0.197068
22998.75000 0.194299
23000.85938 0.191455
23002.97070 0.188497
23005.08008 0.185541
23007.18945 0.182647
23009.28906 0.179753
23011.40039 0.177037
23013.51953 0.174409
23015.63086 0.171804
23017.74023 0.169244
23019.84961 0.166687
23021.96094 0.164139
23024.07031 0.161593
23026.17969 0.159062
23028.28906 0.156544
23030.40039 0.15401
23032.50977 0.151409
23034.61914 0.148808
23036.74023 0.146253
23038.84961 0.143712
23040.96094 0.141266
23043.07031 0.138939
23045.18945 0.136626
23047.30078 0.134468
23049.41016 0.13231
23051.52930 0.130136
23053.64062 0.127956
23055.75977 0.125809
23057.86914 0.123726
23059.98047 0.121643
23062.09961 0.119574
23064.21094 0.117504
23066.33008 0.115388
23068.43945 0.113242
23070.56055 0.111158
23072.66992 0.10925
23074.78906 0.10734
23076.90039 0.105535
23079.01953 0.103741
23081.14062 0.101984
23083.25000 0.100261
23085.36914 0.098536
23087.49023 0.096806
23089.59961 0.095076
23091.72070 0.093472
23093.83984 0.091897
23095.96094 0.090294
23098.07031 0.088659
23100.18945 0.087022
23102.31055 0.085389
23104.42969 0.083754
23106.53906 0.082306
23108.66016 0.080926
23110.77930 0.079562
23112.90039 0.078224
23115.01953 0.076886
23117.14062 0.075576
23119.25977 0.074266
23121.38086 0.072971
23123.50000 0.071685
23125.61914 0.070408
23127.74023 0.069157
23129.85938 0.067905
23131.98047 0.066657
23134.09961 0.065409
23136.22070 0.064208
23138.34961 0.063041
23140.47070 0.0619
23142.58984 0.060856
23144.71094 0.059812
23146.83008 0.058822
23148.96094 0.05784
23151.08008 0.056852
23153.19922 0.055856
23155.32031 0.054869
23157.44922 0.053932
23159.57031 0.052994
23161.69922 0.052037
23163.82031 0.051076
23165.93945 0.050139
23168.07031 0.049235
23170.18945 0.048344
23172.32031 0.047588
23174.43945 0.046833
23176.56055 0.046049
23178.68945 0.045254
23180.82031 0.044464
23182.93945 0.043683
23185.07031 0.042904
23187.18945 0.042189
23189.32031 0.041474
23191.44922 0.040779
23193.57031 0.040094
23195.69922 0.039407
23197.82031 0.038715
23199.94922 0.038023
23202.08008 0.037395
23204.21094 0.036769
23206.33008 0.03614
23208.46094 0.035508
23210.58984 0.034896
23212.72070 0.034329
23214.84961 0.033762
23216.98047 0.033262
23219.10938 0.032766
23221.23047 0.032212
23223.35938 0.031617
23225.49023 0.031036
23227.61914 0.030502
23229.75000 0.029967
23231.88086 0.029465
23234.00977 0.028966
23236.14062 0.028505
23238.26953 0.028077
23240.40039 0.027656
23242.53906 0.027263
23244.66992 0.026869
23246.80078 0.02637
23248.92969 0.025852
23251.06055 0.025414
23253.18945 0.025058
23255.32031 0.024694
23257.46094 0.024285
23259.58984 0.023875
23261.72070 0.023469
23263.85938 0.023063
23265.99023 0.022679
23268.11914 0.022319
23270.25000 0.021964
23272.39062 0.021645
23274.51953 0.021326
23276.66016 0.020998
23278.78906 0.020666
23280.92969 0.020355
23283.06055 0.02007
23285.19922 0.019779
23287.33008 0.019429
23289.46094 0.019079
23291.59961 0.018771
23293.74023 0.018477
23295.86914 0.018185
23298.00977 0.017897
23300.14062 0.017612
23302.27930 0.017376
23304.41992 0.017139
23306.55078 0.016909
23308.68945 0.01668
23310.83008 0.016422
23312.97070 0.016116
23315.09961 0.015816
23317.24023 0.015616
23319.38086 0.015417
23321.51953 0.015194
23323.66016 0.014961
23325.78906 0.014729
23327.92969 0.014499
23330.07031 0.014269
23332.21094 0.014056
23334.34961 0.013842
23336.49023 0.013648
23338.63086 0.013462
23340.76953 0.013265
23342.91016 0.013047
23345.05078 0.012831
23347.18945 0.012684
23349.33008 0.012538
23351.47070 0.012354
23353.61914 0.012154
23355.75977 0.011963
23357.90039 0.011789
23360.03906 0.011614
23362.17969 0.011421
23364.32031 0.011227
23366.46094 0.01108
23368.60938 0.010954
23370.75000 0.010831
23372.89062 0.010712
23375.03906 0.010592
23377.17969 0.010429
23379.32031 0.010265
23381.47070 0.010051
23383.60938 0.009814
23385.75977 0.009635
23387.90039 0.009563
23390.03906 0.00949
23392.18945 0.009352
23394.33008 0.009214
23396.48047 0.009077
23398.63086 0.008941
23400.76953 0.008814
23402.91992 0.008702
23405.06055 0.008589
23407.21094 0.008428
23409.34961 0.008267
23411.50000 0.008147
23413.65039 0.008044
23415.78906 0.007974
23417.93945 0.007957
23420.08984 0.007935
23422.23047 0.007764
23424.38086 0.007593
23426.52930 0.007467
23428.67969 0.00736
23430.83008 0.007255
23432.97070 0.007154
23435.13086 0.007054
23437.26953 0.006972
23439.41992 0.006889
23441.57031 0.006794
23443.72070 0.006693
23445.86914 0.006613
23448.01953 0.006561
23450.16992 0.006505
23452.32031 0.006403
23454.47070 0.006301
23456.61914 0.00621
23458.76953 0.006121
23460.91992 0.006042
23463.07031 0.005977
23465.23047 0.005913
23467.38086 0.005864
23469.52930 0.005815
23471.67969 0.005671
23473.83008 0.0055
23475.99023 0.005396
23478.14062 0.00537
23480.28906 0.005344
23482.43945 0.005313
23484.59961 0.005281
23486.75000 0.005201
23488.90039 0.00511
23491.06055 0.005048
23493.21094 0.005016
23495.36914 0.00498
23497.51953 0.004925
23499.66992 0.00487
23501.83008 0.004811
23503.98047 0.004751
23506.14062 0.004683
23508.28906 0.004609
23510.44922 0.004545
23512.60938 0.004519
23514.75977 0.004493
23516.91992 0.004424
23519.07031 0.004349
23521.23047 0.004304
23523.39062 0.004283
23525.53906 0.004247
23527.69922 0.004165
23529.85938 0.004084
23532.01953 0.003909
23534.16992 0.003728
23536.33008 0.003703
23538.49023 0.003775
23540.65039 0.003816
23542.81055 0.003783
23544.96094 0.00375
23547.13086 0.00365
23549.27930 0.003548
23551.43945 0.003505
23553.59961 0.003491
23555.75977 0.003486
23557.91992 0.003501
23560.08008 0.003512
23562.24023 0.003436
23564.40039 0.003361
23566.56055 0.003322
23568.72070 0.003297
23570.88086 0.003273
23573.05078 0.003249
23575.21094 0.003219
23577.36914 0.003135
23579.52930 0.003051
23581.68945 0.003021
23583.85938 0.003006
23586.01953 0.002994
23588.17969 0.002987
23590.33984 0.002968
23592.50977 0.002882
23594.66992 0.002795
23596.83008 0.002746
23599.00000 0.002704
23601.16016 0.002667
23603.33008 0.002634
23605.49023 0.002596
23607.65039 0.002538
23609.82031 0.00248
23611.98047 0.002482
23614.15039 0.002489
23616.31055 0.0025
23618.48047 0.002512
23620.64062 0.002492
23622.81055 0.002395
23624.98047 0.002298
23627.14062 0.002453
23629.31055 0.002612
23631.48047 0.002506
23633.64062 0.002276
23635.81055 0.002146
23637.98047 0.002183
23640.14062 0.002221
23642.31055 0.002254
23644.48047 0.002287
23646.65039 0.002288
23648.82031 0.002279
23650.98047 0.002257
23653.15039 0.002218
23655.32031 0.002174
23657.49023 0.002092
23659.66016 0.002011
23661.83008 0.001958
23664.00000 0.00191
23666.16992 0.001917
23668.33984 0.001971
23670.50977 0.002004
23672.67969 0.001973
23674.84961 0.001942
23677.01953 0.001959
23679.18945 0.00198
23681.35938 0.001899
23683.53906 0.001758
23685.71094 0.001677
23687.88086 0.001719
23690.05078 0.001761
23692.22070 0.001772
23694.39062 0.001783
23696.57031 0.001752
23698.74023 0.001704
23700.91016 0.001679
23703.08984 0.001684
23705.25977 0.001705
23707.42969 0.00185
23709.60938 0.001996
23711.77930 0.001861
23713.96094 0.001665
23716.13086 0.001562
23718.30078 0.001545
23720.48047 0.001522
23722.65039 0.001474
23724.83008 0.001426
23727.00977 0.001435
23729.17969 0.001449
23731.35938 0.00146
23733.52930 0.00147
23735.71094 0.001493
23737.88086 0.001542
23740.06055 0.001585
23742.24023 0.001446
23744.41992 0.001307
23746.58984 0.001255
23748.76953 0.001235
23750.94922 0.00122
23753.13086 0.001211
23755.30078 0.001216
23757.48047 0.001308
23759.66016 0.0014
23761.83984 0.001327
23764.01953 0.001223
23766.19922 0.001205
23768.36914 0.001258
23770.55078 0.001267
23772.73047 0.001148
23774.91016 0.001029
23777.08984 0.001084
23779.26953 0.001146
23781.46094 0.001169
23783.63086 0.001171
23785.82031 0.001183
23788.00000 0.001211
23790.17969 0.00123
23792.35938 0.001156
23794.53906 0.001081
23796.72070 0.001041
23798.90039 0.001011
23801.08984 0.001079
23803.26953 0.001248
23805.44922 0.001344
23807.63086 0.001159
23809.82031 0.000975
23812.00000 0.000999
23814.17969 0.001042
23816.36914 0.001094
23818.55078 0.001152
23820.74023 0.001172
23822.91992 0.001121
23825.09961 0.001068
23827.28906 0.000974
23829.47070 0.000881
23831.66016 0.000923
23833.83984 0.001009
23836.02930 0.001056
23838.21094 0.001058
23840.40039 0.001044
23842.58984 0.000955
23844.76953 0.000866
23846.96094 0.000972
23849.15039 0.001102
23851.33008 0.001111
23853.51953 0.001043
23855.71094 0.000975
23857.89062 0.000905
23860.08008 0.00084
23862.26953 0.000908
23864.46094 0.000975
23866.64062 0.00088
23868.83008 0.00073
23871.01953 0.000668
23873.21094 0.000706
23875.40039 0.000737
23877.58984 0.000738
23879.77930 0.00074
23881.97070 0.000682
23884.16016 0.000617
23886.34961 0.000629
23888.53906 0.000689
23890.73047 0.000754
23892.91992 0.000831
23895.10938 0.000889
23897.30078 0.0006
26287.03125 0.0
