# %ECSV 0.9
# ---
# datatype:
# - {name: wavelength, unit: Angstrom, datatype: float32}
# - {name: response, datatype: float32}
# meta: !!omap
# - {band_name: F110W}
# - {group_name: NICMOS3}
wavelength response
6973.21191 0.0
7748.01318 0.000401
7748.65381 0.000404
7749.29395 0.000407
7749.93506 0.000411
7750.57617 0.000414
7751.21680 0.000417
7751.85693 0.000419
7752.49902 0.000422
7753.14014 0.000425
7753.77979 0.000428
7754.42090 0.000431
7755.06201 0.000434
7755.70410 0.000438
7756.34521 0.000442
7756.98584 0.000446
7757.62793 0.00045
7758.26904 0.000454
7758.91113 0.000458
7759.55176 0.000461
7760.19385 0.000465
7760.83496 0.00047
7761.47705 0.000474
7762.11914 0.000478
7762.75977 0.000482
7763.40186 0.000486
7764.04395 0.00049
7764.68604 0.000495
7765.32812 0.000499
7765.97021 0.000504
7766.61182 0.000509
7767.25391 0.000514
7767.89600 0.000519
7768.53906 0.000524
7769.18115 0.000529
7769.82324 0.000534
7770.46582 0.000539
7771.10791 0.000544
7771.75000 0.000549
7772.39307 0.000554
7773.03613 0.000559
7773.67920 0.000564
7774.32080 0.000569
7774.96387 0.000574
7775.60693 0.00058
7776.25000 0.000586
7776.89307 0.000592
7777.53613 0.000598
7778.17920 0.000604
7778.82178 0.00061
7779.46484 0.000615
7780.10791 0.000622
7780.75098 0.000628
7781.39502 0.000635
7782.03809 0.000642
7782.68213 0.000649
7783.32520 0.000655
7783.96924 0.000662
7784.61182 0.000669
7785.25586 0.000676
7785.89893 0.000684
7786.54297 0.000691
7787.18701 0.000699
7787.83105 0.000707
7788.47510 0.000714
7789.11914 0.000722
7789.76318 0.00073
7790.40723 0.000738
7791.05078 0.000747
7791.69482 0.000756
7792.33887 0.000765
7792.98291 0.000774
7793.62793 0.000783
7794.27197 0.000792
7794.91699 0.000801
7795.56104 0.000811
7796.20605 0.000821
7796.85010 0.000832
7797.49512 0.000842
7798.14014 0.000852
7798.78418 0.000862
7799.42920 0.000872
7800.07422 0.000882
7800.71924 0.000893
7801.36377 0.000905
7802.00879 0.000916
7802.65381 0.000927
7803.29883 0.000938
7803.94385 0.000949
7804.58887 0.000961
7805.23486 0.000973
7805.87988 0.000987
7806.52490 0.001
7807.17090 0.001014
7807.81592 0.001028
7808.46191 0.001041
7809.10693 0.001055
7809.75293 0.001069
7810.39893 0.001084
7811.04395 0.001099
7811.68994 0.001115
7812.33594 0.001131
7812.98193 0.001146
7813.62793 0.001162
7814.27393 0.001178
7814.91992 0.001194
7815.56592 0.001211
7816.21191 0.001228
7816.85889 0.001246
7817.50488 0.001264
7818.15088 0.001281
7818.79785 0.001299
7819.44385 0.001316
7820.09082 0.001334
7820.73682 0.001355
7821.38379 0.001376
7822.03076 0.001397
7822.67676 0.001417
7823.32422 0.001438
7823.97119 0.001459
7824.61816 0.00148
7825.26514 0.001502
7825.91211 0.001525
7826.55908 0.001549
7827.20605 0.001573
7827.85303 0.001596
7828.50000 0.00162
7829.14697 0.001644
7829.79492 0.001667
7830.44189 0.001693
7831.08984 0.001719
7831.73682 0.001746
7832.38477 0.001772
7833.03223 0.001799
7833.68018 0.001825
7834.32812 0.001852
7834.97510 0.001878
7835.62305 0.00191
7836.27100 0.001941
7836.91895 0.001972
7837.56689 0.002004
7838.21484 0.002035
7838.86279 0.002067
7839.51123 0.002098
7840.15918 0.00213
7840.80713 0.002164
7841.45605 0.002198
7842.10400 0.002231
7842.75195 0.002265
7843.40088 0.002299
7844.04883 0.002333
7844.69824 0.002367
7845.34619 0.002404
7845.99512 0.002444
7846.64404 0.002483
7847.29199 0.002523
7847.94092 0.002563
7848.58984 0.002603
7849.23877 0.002643
7849.88818 0.002683
7850.53711 0.002727
7851.18604 0.002772
7851.83496 0.002818
7852.48389 0.002863
7853.13379 0.002908
7853.78320 0.002954
7854.43213 0.002999
7855.08203 0.003045
7855.73096 0.003093
7856.38086 0.003142
7857.02979 0.00319
7857.68018 0.003238
7858.33008 0.003287
7858.97900 0.003335
7859.62891 0.003383
7860.27881 0.003435
7860.92920 0.003491
7861.57910 0.003547
7862.22900 0.003602
7862.87891 0.003658
7863.52881 0.003714
7864.17920 0.00377
7864.82910 0.003826
7865.47900 0.003885
7866.12988 0.003945
7866.77979 0.004005
7867.43115 0.004064
7868.08105 0.004124
7868.73096 0.004184
7869.38184 0.004245
7870.03320 0.004305
7870.68408 0.004368
7871.33398 0.00443
7871.98486 0.004493
7872.63623 0.004556
7873.28711 0.004619
7873.93799 0.004682
7874.58887 0.004745
7875.24023 0.00481
7875.89111 0.004879
7876.54199 0.004947
7877.19287 0.005016
7877.84521 0.005085
7878.49609 0.005153
7879.14697 0.005222
7879.79883 0.005291
7880.45020 0.00536
7881.10205 0.00543
7881.75293 0.005499
7882.40479 0.005568
7883.05713 0.005638
7883.70801 0.005707
7884.35986 0.005776
7885.01221 0.005846
7885.66406 0.005917
7886.31592 0.005989
7886.96777 0.00606
7887.62109 0.006132
7888.27197 0.006203
7888.92480 0.006275
7889.57715 0.006346
7890.22900 0.006418
7890.88184 0.006492
7891.53418 0.006565
7892.18701 0.006638
7892.83887 0.006712
7893.49219 0.006785
7894.14404 0.006858
7894.79688 0.006932
7895.45020 0.007004
7896.10303 0.007075
7896.75488 0.007146
7897.40820 0.007218
7898.06104 0.007289
7898.71387 0.00736
7899.36719 0.007432
7900.02100 0.007503
7900.67285 0.007576
7901.32715 0.007648
7901.97998 0.007721
7902.63281 0.007794
7903.28711 0.007867
7903.93994 0.00794
7904.59424 0.008012
7905.24707 0.008084
7905.90088 0.008154
7906.55518 0.008225
7907.20801 0.008295
7907.86182 0.008365
7908.51611 0.008436
7909.16895 0.008506
7909.82422 0.008576
7910.47803 0.008646
7911.13184 0.008715
7911.78613 0.008784
7912.43994 0.008853
7913.09424 0.008923
7913.74805 0.008992
7914.40283 0.009061
7915.05713 0.009131
7915.71094 0.009203
7916.36621 0.009275
7917.02100 0.009348
7917.67480 0.00942
7918.33008 0.009493
7918.98389 0.009565
7919.63916 0.009638
7920.29395 0.009708
7920.94922 0.009776
7921.60400 0.009844
7922.25781 0.009912
7922.91406 0.00998
7923.56787 0.010049
7924.22412 0.010117
7924.87891 0.010185
7925.53418 0.010255
7926.18896 0.010326
7926.84521 0.010396
7927.50000 0.010467
7928.15479 0.010537
7928.81104 0.010608
7929.46680 0.010679
7930.12207 0.01075
7930.77783 0.010824
7931.43408 0.010897
7932.08887 0.010971
7932.74512 0.011044
7933.40088 0.011118
7934.05713 0.011192
7934.71289 0.011265
7935.36914 0.011341
7936.02490 0.011419
7936.68115 0.011496
7937.33691 0.011574
7937.99414 0.011652
7938.64990 0.011729
7939.30615 0.011807
7939.96289 0.011885
7940.61914 0.011966
7941.27588 0.012048
7941.93213 0.012129
7942.58887 0.012211
7943.24609 0.012292
7943.90186 0.012374
7944.55908 0.012456
7945.21582 0.01254
7945.87305 0.012628
7946.52979 0.012717
7947.18701 0.012806
7947.84424 0.012895
7948.50098 0.012984
7949.15820 0.013073
7949.81494 0.013162
7950.47314 0.013257
7951.12988 0.013355
7951.78809 0.013453
7952.44482 0.013551
7953.10303 0.013648
7953.75977 0.013747
7954.41699 0.013844
7955.07520 0.013944
7955.73291 0.014056
7956.39111 0.014168
7957.04883 0.01428
7957.70703 0.014392
7958.36523 0.014505
7959.02197 0.014617
7959.68115 0.014729
7960.33887 0.014847
7960.99707 0.01497
7961.65479 0.015094
7962.31299 0.015217
7962.97217 0.015341
7963.62988 0.015465
7964.28906 0.015588
7964.94678 0.015712
7965.60498 0.015851
7966.26416 0.015991
7966.92285 0.016132
7967.58203 0.016273
7968.24023 0.016413
7968.89893 0.016554
7969.55811 0.016695
7970.21680 0.016842
7970.87500 0.017004
7971.53516 0.017165
7972.19385 0.017327
7972.85303 0.017488
7973.51221 0.01765
7974.17090 0.017812
7974.83105 0.017974
7975.49023 0.018148
7976.14893 0.018327
7976.80908 0.018506
7977.46777 0.018685
7978.12793 0.018865
7978.78809 0.019044
7979.44678 0.019223
7980.10693 0.019407
7980.76709 0.019612
7981.42676 0.019818
7982.08594 0.020023
7982.74707 0.020229
7983.40723 0.020435
7984.06689 0.02064
7984.72705 0.020846
7985.38721 0.021068
7986.04688 0.021301
7986.70801 0.021533
7987.36816 0.021766
7988.02783 0.022
7988.68799 0.022233
7989.34912 0.022466
7990.00977 0.0227
7990.66992 0.02296
7991.33105 0.02322
7991.99219 0.02348
7992.65186 0.02374
7993.31299 0.024001
7993.97412 0.024261
7994.63477 0.024522
7995.29590 0.024801
7995.95703 0.025102
7996.61816 0.025404
7997.27881 0.025705
7997.93994 0.026007
7998.60205 0.02631
7999.26318 0.026612
7999.92480 0.026914
8000.58594 0.027226
8001.24805 0.027539
8001.90918 0.027853
8002.57080 0.028166
8003.23193 0.028479
8003.89404 0.028793
8004.55615 0.029106
8005.21777 0.029434
8005.87891 0.029791
8006.54199 0.030148
8007.20312 0.030505
8007.86523 0.030862
8008.52686 0.031219
8009.18896 0.031576
8009.85205 0.031933
8010.51416 0.032314
8011.17578 0.032701
8011.83887 0.033088
8012.50098 0.033475
8013.16406 0.033863
8013.82617 0.03425
8014.48877 0.034637
8015.15088 0.03503
8015.81396 0.035444
8016.47705 0.035858
8017.14014 0.036273
8017.80176 0.036686
8018.46484 0.037101
8019.12793 0.037515
8019.79199 0.037929
8020.45508 0.038361
8021.11816 0.038801
8021.78076 0.039241
8022.44385 0.039681
8023.10693 0.040121
8023.77100 0.040561
8024.43408 0.041001
8025.09814 0.041445
8025.76123 0.041909
8026.42383 0.042374
8027.08789 0.042838
8027.75195 0.043303
8028.41602 0.043768
8029.07910 0.044232
8029.74316 0.044697
8030.40723 0.04517
8031.07080 0.045648
8031.73486 0.046126
8032.39893 0.046604
8033.06299 0.047082
8033.72803 0.047561
8034.39209 0.048039
8035.05615 0.048519
8035.72021 0.049022
8036.38477 0.049524
8037.04883 0.050026
8037.71289 0.050529
8038.37793 0.051031
8039.04199 0.051533
8039.70801 0.052036
8040.37207 0.052529
8041.03711 0.053014
8041.70215 0.053499
8042.36719 0.053985
8043.03223 0.05447
8043.69580 0.054955
8044.36084 0.05544
8045.02686 0.055925
8045.69189 0.056403
8046.35693 0.056881
8047.02197 0.05736
8047.68701 0.057838
8048.35303 0.058316
8049.01904 0.058794
8049.68408 0.059273
8050.35010 0.059752
8051.01514 0.060233
8051.68115 0.060714
8052.34717 0.061195
8053.01221 0.061676
8053.67822 0.062157
8054.34424 0.062638
8055.00977 0.063118
8055.67578 0.063557
8056.34180 0.063995
8057.00781 0.064434
8057.67383 0.064873
8058.33984 0.065312
8059.00586 0.06575
8059.67285 0.066189
8060.33887 0.06662
8061.00586 0.067045
8061.67188 0.067469
8062.33887 0.067893
8063.00488 0.068317
8063.67188 0.068741
8064.33887 0.069165
8065.00488 0.069589
8065.67188 0.069984
8066.33887 0.070378
8067.00586 0.070772
8067.67285 0.071167
8068.33984 0.071561
8069.00684 0.071956
8069.67383 0.07235
8070.34082 0.072724
8071.00879 0.073079
8071.67578 0.073434
8072.34277 0.07379
8073.01123 0.074145
8073.67822 0.0745
8074.34619 0.074855
8075.01318 0.07521
8075.68115 0.075531
8076.34912 0.075853
8077.01709 0.076174
8077.68408 0.076496
8078.35205 0.076817
8079.02002 0.077139
8079.68799 0.07746
8080.35596 0.077773
8081.02393 0.078079
8081.69189 0.078384
8082.35986 0.078689
8083.02881 0.078995
8083.69678 0.0793
8084.36523 0.079605
8085.03418 0.079908
8085.70215 0.080159
8086.37109 0.080411
8087.03906 0.080662
8087.70801 0.080914
8088.37598 0.081165
8089.04492 0.081417
8089.71387 0.081669
8090.38281 0.081901
8091.05176 0.082119
8091.72119 0.082337
8092.39014 0.082556
8093.05908 0.082774
8093.72803 0.082992
8094.39697 0.08321
8095.06592 0.083424
8095.73584 0.083605
8096.40479 0.083786
8097.07520 0.083966
8097.74414 0.084147
8098.41406 0.084328
8099.08301 0.084508
8099.75293 0.084689
8100.42188 0.084837
8101.09180 0.084967
8101.76221 0.085096
8102.43213 0.085225
8103.10205 0.085355
8103.77100 0.085484
8104.44189 0.085613
8105.11182 0.085736
8105.78223 0.085826
8106.45215 0.085916
8107.12305 0.086006
8107.79199 0.086096
8108.46289 0.086185
8109.13281 0.086275
8109.80420 0.086365
8110.47510 0.086429
8111.14502 0.086482
8111.81494 0.086535
8112.48584 0.086588
8113.15723 0.086641
8113.82812 0.086694
8114.49902 0.086747
8115.16895 0.086795
8115.83984 0.086831
8116.51221 0.086868
8117.18311 0.086904
8117.85400 0.08694
8118.52490 0.086976
8119.19580 0.087012
8119.86719 0.087048
8120.53906 0.087059
8121.20996 0.087064
8121.88184 0.087069
8122.55322 0.087074
8123.22510 0.08708
8123.89600 0.087085
8124.56787 0.08709
8125.24023 0.087093
8125.91211 0.087092
8126.58301 0.087091
8127.25488 0.08709
8127.92676 0.08709
8128.59912 0.087089
8129.27100 0.087088
8129.94287 0.087087
8130.61621 0.087081
8131.28809 0.087074
8131.95996 0.087068
8132.63184 0.087061
8133.30518 0.087054
8133.97803 0.087047
8134.64990 0.087041
8135.32178 0.087031
8135.99512 0.087019
8136.66797 0.087007
8137.33984 0.086995
8138.01318 0.086983
8138.68604 0.086971
8139.35889 0.086959
8140.03223 0.086948
8140.70508 0.086947
8141.37793 0.086946
8142.05078 0.086945
8142.72510 0.086944
8143.39697 0.086943
8144.07080 0.086943
8144.74414 0.086942
8145.41699 0.086947
8146.09082 0.086957
8146.76514 0.086966
8147.43799 0.086975
8148.11182 0.086985
8148.78613 0.086994
8149.45898 0.087003
8150.13281 0.087011
8150.80713 0.08701
8151.48096 0.087008
8152.15479 0.087007
8152.82910 0.087006
8153.50293 0.087005
8154.17676 0.087004
8154.85107 0.087003
8155.52490 0.086998
8156.20020 0.086992
8156.87402 0.086986
8157.54785 0.08698
8158.22314 0.086974
8158.89697 0.086968
8159.57178 0.086962
8160.24707 0.086955
8160.92090 0.086949
8161.59619 0.086942
8162.27100 0.086936
8162.94580 0.086929
8163.62109 0.086922
8164.29492 0.086916
8164.97119 0.086909
8165.64600 0.086889
8166.32080 0.086868
8166.99609 0.086847
8167.67090 0.086826
8168.34717 0.086806
8169.02197 0.086785
8169.69678 0.086764
8170.37305 0.086732
8171.04785 0.08669
8171.72412 0.086649
8172.39893 0.086607
8173.07520 0.086566
8173.75098 0.086524
8174.42676 0.086483
8175.10303 0.086439
8175.77783 0.08638
8176.45508 0.086321
8177.12988 0.086262
8177.80713 0.086203
8178.48291 0.086144
8179.15918 0.086085
8179.83496 0.086026
8180.51221 0.085948
8181.18799 0.085864
8181.86377 0.08578
8182.54102 0.085696
8183.21680 0.085612
8183.89404 0.085528
8184.56982 0.085444
8185.24707 0.085349
8185.92383 0.085237
8186.60107 0.085124
8187.27783 0.085011
8187.95508 0.084899
8188.63086 0.084786
8189.30908 0.084673
8189.98584 0.084561
8190.66309 0.084423
8191.33984 0.084284
8192.01758 0.084145
8192.69434 0.084007
8193.37207 0.083868
8194.04980 0.083729
8194.72656 0.08359
8195.40430 0.083452
8196.08203 0.083314
8196.75977 0.083175
8197.43848 0.083037
8198.11523 0.082899
8198.79297 0.082761
8199.47070 0.082622
8200.14844 0.082481
8200.82715 0.082328
8201.50488 0.082175
8202.18262 0.082022
8202.86133 0.081869
8203.53906 0.081715
8204.21777 0.081562
8204.89648 0.081409
8205.57422 0.081257
8206.25293 0.081104
8206.93066 0.080952
8207.60938 0.0808
8208.28809 0.080647
8208.96680 0.080495
8209.64648 0.080343
8210.32422 0.080187
8211.00293 0.080028
8211.68164 0.07987
8212.36133 0.079711
8213.04004 0.079552
8213.71875 0.079393
8214.39844 0.079234
8215.07715 0.079079
8215.75684 0.078945
8216.43555 0.078811
8217.11523 0.078677
8217.79492 0.078543
8218.47363 0.078409
8219.15332 0.078276
8219.83301 0.078142
8220.51270 0.078013
8221.19238 0.077885
8221.87207 0.077758
8222.55176 0.07763
8223.23145 0.077503
8223.91113 0.077375
8224.59180 0.077247
8225.27148 0.077127
8225.95117 0.077018
8226.63184 0.076909
8227.31152 0.0768
8227.99219 0.076691
8228.67285 0.076582
8229.35254 0.076474
8230.03320 0.076365
8230.71387 0.076275
8231.39453 0.076185
8232.07422 0.076095
8232.75488 0.076005
8233.43555 0.075915
8234.11719 0.075825
8234.79785 0.075735
8235.47852 0.075666
8236.15918 0.075606
8236.83984 0.075545
8237.52148 0.075485
8238.20215 0.075425
8238.88379 0.075364
8239.56445 0.075304
8240.24609 0.075248
8240.92676 0.075201
8241.60840 0.075153
8242.29004 0.075105
8242.97168 0.075058
8243.65332 0.07501
8244.33496 0.074962
8245.01660 0.074915
8245.69824 0.074884
8246.37988 0.074853
8247.06152 0.074821
8247.74316 0.07479
8248.42480 0.074759
8249.10742 0.074728
8249.78906 0.074697
8250.47168 0.074677
8251.15332 0.074661
8251.83594 0.074646
8252.51758 0.074631
8253.20020 0.074616
8253.88281 0.0746
8254.56543 0.074585
8255.24707 0.074574
8255.92969 0.07457
8256.61230 0.074565
8257.29492 0.074561
8257.97754 0.074557
8258.66113 0.074553
8259.34375 0.074548
8260.02637 0.074544
8260.70898 0.074532
8261.39258 0.07452
8262.07520 0.074507
8262.75879 0.074495
8263.44141 0.074483
8264.12500 0.074471
8264.80859 0.074459
8265.49121 0.074451
8266.17480 0.074444
8266.85840 0.074438
8267.54199 0.074432
8268.22559 0.074426
8268.90918 0.074419
8269.59277 0.074413
8270.27637 0.074403
8270.95996 0.074386
8271.64453 0.07437
8272.32812 0.074353
8273.01172 0.074337
8273.69629 0.07432
8274.37988 0.074304
8275.06445 0.074285
8275.74805 0.074248
8276.43262 0.07421
8277.11719 0.074172
8277.80078 0.074134
8278.48535 0.074096
8279.16992 0.074058
8279.85352 0.074021
8280.53906 0.073974
8281.22363 0.073926
8281.90820 0.073877
8282.59277 0.073828
8283.27832 0.07378
8283.96289 0.073731
8284.64746 0.073683
8285.33301 0.073638
8286.01758 0.073599
8286.70312 0.07356
8287.38770 0.073521
8288.07324 0.073482
8288.75879 0.073442
8289.44336 0.073403
8290.12891 0.07336
8290.81445 0.073303
8291.50000 0.073246
8292.18555 0.073189
8292.87109 0.073132
8293.55664 0.073075
8294.24219 0.073018
8294.92871 0.07296
8295.61426 0.072913
8296.29980 0.072867
8296.98633 0.072821
8297.67188 0.072775
8298.35840 0.072728
8299.04395 0.072682
8299.73047 0.072636
8300.41602 0.072594
8301.10254 0.072556
8301.78906 0.072517
8302.47559 0.072479
8303.16211 0.07244
8303.84863 0.072402
8304.53516 0.072363
8305.22168 0.07233
8305.90820 0.072308
8306.59473 0.072287
8307.28223 0.072265
8307.96875 0.072243
8308.65527 0.072222
8309.34277 0.0722
8310.02930 0.072179
8310.71680 0.072187
8311.40332 0.072195
8312.09082 0.072204
8312.77832 0.072212
8313.46582 0.07222
8314.15234 0.072228
8314.83984 0.072236
8315.52734 0.072281
8316.21484 0.072337
8316.90234 0.072393
8317.59082 0.072449
8318.27832 0.072505
8318.96582 0.072561
8319.65332 0.072617
8320.34180 0.072673
8321.02930 0.072729
8321.71777 0.072785
8322.40527 0.072841
8323.09375 0.072897
8323.78125 0.072953
8324.46973 0.073009
8325.15820 0.073072
8325.84668 0.07316
8326.53516 0.073248
8327.22363 0.073335
8327.91211 0.073423
8328.60059 0.073511
8329.28906 0.073599
8329.97754 0.073686
8330.66602 0.073802
8331.35547 0.073918
8332.04395 0.074035
8332.73242 0.074151
8333.42188 0.074268
8334.11035 0.074385
8334.79980 0.074501
8335.48926 0.074613
8336.17773 0.074724
8336.86719 0.074834
8337.55664 0.074945
8338.24609 0.075055
8338.93555 0.075166
8339.62500 0.075276
8340.31445 0.075387
8341.00391 0.075497
8341.69336 0.075607
8342.38281 0.075717
8343.07324 0.075827
8343.76270 0.075937
8344.45215 0.076047
8345.14258 0.076152
8345.83203 0.076238
8346.52246 0.076323
8347.21289 0.076409
8347.90234 0.076495
8348.59277 0.07658
8349.28320 0.076666
8349.97363 0.076752
8350.66406 0.07681
8351.35352 0.076867
8352.04492 0.076924
8352.73535 0.076981
8353.42578 0.077038
8354.11621 0.077095
8354.80762 0.077153
8355.49805 0.077169
8356.18848 0.07717
8356.87988 0.07717
8357.57031 0.077171
8358.26172 0.077172
8358.95312 0.077173
8359.64355 0.077173
8360.33496 0.077157
8361.02637 0.077123
8361.71777 0.07709
8362.40918 0.077056
8363.10059 0.077022
8363.79199 0.076988
8364.48340 0.076954
8365.17480 0.076909
8365.86621 0.076829
8366.55859 0.076749
8367.25000 0.076669
8367.94141 0.076589
8368.63379 0.076508
8369.32520 0.076428
8370.01758 0.076348
8370.70996 0.076246
8371.40137 0.076145
8372.09375 0.076043
8372.78613 0.075942
8373.47852 0.075841
8374.17090 0.075739
8374.86328 0.075638
8375.55566 0.075519
8376.24805 0.075396
8376.94043 0.075273
8377.63281 0.07515
8378.32520 0.075027
8379.01855 0.074903
8379.71094 0.07478
8380.40430 0.074664
8381.09668 0.074554
8381.79004 0.074443
8382.48242 0.074332
8383.17578 0.074222
8383.86914 0.074111
8384.56152 0.074
8385.25586 0.073888
8385.94824 0.073773
8386.64160 0.073658
8387.33594 0.073543
8388.02930 0.073428
8388.72266 0.073314
8389.41602 0.073199
8390.10938 0.073091
8390.80371 0.073023
8391.49707 0.072956
8392.19043 0.072888
8392.88477 0.07282
8393.57910 0.072752
8394.27246 0.072685
8394.96680 0.072617
8395.66113 0.072571
8396.35352 0.072526
8397.04883 0.072481
8397.74316 0.072437
8398.43848 0.072392
8399.13184 0.072347
8399.82617 0.072302
8400.52148 0.072276
8401.21582 0.072256
8401.91016 0.072237
8402.60352 0.072217
8403.29980 0.072197
8403.99414 0.072178
8404.68945 0.072158
8405.38379 0.072148
8406.07910 0.072145
8406.77441 0.072141
8407.46875 0.072138
8408.16406 0.072135
8408.85938 0.072132
8409.55469 0.072129
8410.25000 0.072131
8410.94531 0.072142
8411.64062 0.072153
8412.33594 0.072165
8413.03223 0.072176
8413.72754 0.072187
8414.42285 0.072199
8415.11914 0.072206
8415.81445 0.072193
8416.51074 0.07218
8417.20605 0.072167
8417.90234 0.072154
8418.59766 0.072141
8419.29395 0.072128
8419.99023 0.072115
8420.68652 0.07207
8421.38281 0.072025
8422.07910 0.071979
8422.77539 0.071934
8423.47168 0.071889
8424.16797 0.071843
8424.86426 0.071798
8425.56152 0.071709
8426.25781 0.071609
8426.95410 0.07151
8427.65137 0.07141
8428.34766 0.071311
8429.04492 0.071211
8429.74219 0.071111
8430.43848 0.07097
8431.13574 0.070803
8431.83301 0.070637
8432.53027 0.07047
8433.22754 0.070304
8433.92480 0.070137
8434.62207 0.069971
8435.31934 0.069772
8436.01660 0.069535
8436.71387 0.069297
8437.41113 0.06906
8438.10938 0.068823
8438.80664 0.068586
8439.50488 0.068348
8440.20215 0.068098
8440.90039 0.067815
8441.59766 0.067532
8442.29590 0.067248
8442.99414 0.066965
8443.69238 0.066682
8444.38965 0.066399
8445.08789 0.06611
8445.78613 0.065784
8446.48438 0.065457
8447.18359 0.065131
8447.88184 0.064804
8448.58008 0.064478
8449.27832 0.064151
8449.97754 0.063825
8450.67578 0.063482
8451.37500 0.063139
8452.07324 0.062796
8452.77246 0.062452
8453.47070 0.062109
8454.16992 0.061766
8454.86914 0.061422
8455.56836 0.061083
8456.26660 0.060745
8456.96582 0.060407
8457.66504 0.060069
8458.36426 0.05973
8459.06445 0.059392
8459.76367 0.059053
8460.46289 0.058744
8461.16211 0.05845
8461.86230 0.058155
8462.56152 0.057861
8463.26074 0.057567
8463.96094 0.057272
8464.66113 0.056977
8465.36035 0.056711
8466.06055 0.056472
8466.76074 0.056232
8467.46094 0.055993
8468.16016 0.055754
8468.86035 0.055514
8469.56055 0.055275
8470.26074 0.055068
8470.96191 0.054914
8471.66211 0.054761
8472.36230 0.054608
8473.06348 0.054455
8473.76367 0.054301
8474.46387 0.054148
8475.16504 0.054011
8475.86523 0.053926
8476.56641 0.05384
8477.26660 0.053755
8477.96777 0.05367
8478.66895 0.053585
8479.37012 0.053499
8480.07129 0.053426
8480.77246 0.053454
8481.47363 0.053482
8482.17480 0.05351
8482.87598 0.053538
8483.57715 0.053566
8484.27832 0.053594
8484.98047 0.053622
8485.68164 0.053748
8486.38281 0.053877
8487.08496 0.054006
8487.78613 0.054135
8488.48828 0.054264
8489.19043 0.054393
8489.89160 0.054522
8490.59375 0.054738
8491.29590 0.054971
8491.99805 0.055203
8492.70020 0.055435
8493.40234 0.055668
8494.10352 0.0559
8494.80664 0.056133
8495.50879 0.056435
8496.21191 0.056765
8496.91406 0.057095
8497.61621 0.057424
8498.31934 0.057754
8499.02148 0.058084
8499.72461 0.058414
8500.42676 0.058786
8501.12988 0.059186
8501.83301 0.059586
8502.53613 0.059986
8503.23926 0.060386
8503.94141 0.060785
8504.64453 0.061185
8505.34766 0.061614
8506.05176 0.062073
8506.75488 0.062531
8507.45801 0.06299
8508.16113 0.063448
8508.86523 0.063907
8509.56836 0.064365
8510.27148 0.064828
8510.97559 0.065299
8511.67871 0.06577
8512.38281 0.066241
8513.08691 0.066713
8513.79102 0.067184
8514.49414 0.067655
8515.19824 0.068118
8515.90234 0.068562
8516.60645 0.069006
8517.31055 0.069449
8518.01465 0.069893
8518.71875 0.070337
8519.42383 0.070781
8520.12793 0.07121
8520.83203 0.071575
8521.53711 0.071941
8522.24121 0.072305
8522.94629 0.072671
8523.65039 0.073036
8524.35547 0.073401
8525.06055 0.073752
8525.76465 0.073951
8526.46973 0.07415
8527.17480 0.074349
8527.87988 0.074548
8528.58496 0.074747
8529.29004 0.074945
8529.99512 0.075144
8530.70020 0.075207
8531.40625 0.07527
8532.11133 0.075332
8532.81641 0.075394
8533.52246 0.075456
8534.22754 0.075518
8534.93359 0.07558
8535.63867 0.075475
8536.34473 0.075353
8537.05078 0.075231
8537.75684 0.075109
8538.46191 0.074987
8539.16797 0.074864
8539.87402 0.074742
8540.58008 0.074492
8541.28613 0.074214
8541.99316 0.073936
8542.69922 0.073658
8543.40527 0.07338
8544.11133 0.073102
8544.81836 0.072824
8545.52441 0.072452
8546.23145 0.072046
8546.93848 0.071641
8547.64453 0.071235
8548.35059 0.07083
8549.05762 0.070425
8549.76465 0.070019
8550.47168 0.069575
8551.17871 0.069112
8551.88574 0.068649
8552.59277 0.068185
8553.29980 0.067722
8554.00684 0.067259
8554.71387 0.066796
8555.42188 0.066322
8556.12891 0.065842
8556.83594 0.065362
8557.54395 0.064882
8558.25098 0.064402
8558.95898 0.063921
8559.66602 0.063441
8560.37402 0.062979
8561.08203 0.062532
8561.79004 0.062085
8562.49805 0.061638
8563.20605 0.061191
8563.91406 0.060745
8564.62207 0.060298
8565.33008 0.05988
8566.03809 0.059496
8566.74609 0.059112
8567.45410 0.058728
8568.16309 0.058343
8568.87109 0.057959
8569.58008 0.057575
8570.28809 0.057222
8570.99707 0.056914
8571.70508 0.056607
8572.41406 0.0563
8573.12305 0.055992
8573.83203 0.055685
8574.54102 0.055377
8575.25000 0.055099
8575.95898 0.054874
8576.66797 0.05465
8577.37695 0.054425
8578.08594 0.054201
8578.79492 0.053976
8579.50488 0.053752
8580.21387 0.053564
8580.92285 0.053464
8581.63281 0.053364
8582.34180 0.053263
8583.05176 0.053163
8583.76172 0.053062
8584.47070 0.052962
8585.18066 0.052881
8585.89062 0.052855
8586.60059 0.05283
8587.31055 0.052804
8588.02148 0.052779
8588.73047 0.052754
8589.44043 0.052728
8590.15039 0.052723
8590.86133 0.052791
8591.57129 0.05286
8592.28125 0.052928
8592.99219 0.052997
8593.70215 0.053066
8594.41309 0.053134
8595.12402 0.053218
8595.83398 0.053372
8596.54492 0.053527
8597.25586 0.053681
8597.96680 0.053836
8598.67773 0.05399
8599.38867 0.054145
8600.09961 0.054311
8600.81055 0.054551
8601.52148 0.05479
8602.23242 0.05503
8602.94434 0.05527
8603.65527 0.055509
8604.36621 0.055749
8605.07812 0.055996
8605.78906 0.056304
8606.50098 0.056613
8607.21289 0.056921
8607.92383 0.057229
8608.63574 0.057537
8609.34766 0.057845
8610.05957 0.058158
8610.77148 0.058518
8611.48340 0.058878
8612.19531 0.059238
8612.90723 0.059598
8613.61914 0.059958
8614.33203 0.060318
8615.04395 0.060679
8615.75586 0.061061
8616.46875 0.061444
8617.18066 0.061825
8617.89355 0.062208
8618.60547 0.06259
8619.31836 0.062972
8620.03125 0.063355
8620.74414 0.06375
8621.45703 0.064145
8622.16895 0.064539
8622.88184 0.064934
8623.59570 0.06533
8624.30859 0.065725
8625.02148 0.06612
8625.73438 0.06653
8626.44727 0.066939
8627.16113 0.067349
8627.87402 0.067758
8628.58789 0.068168
8629.30078 0.068577
8630.01465 0.068986
8630.72754 0.069346
8631.44141 0.069707
8632.15527 0.070068
8632.86914 0.070429
8633.58301 0.07079
8634.29590 0.071151
8635.00977 0.071511
8635.72461 0.071826
8636.43848 0.07214
8637.15234 0.072455
8637.86621 0.072769
8638.58008 0.073083
8639.29492 0.073398
8640.00879 0.073712
8640.72363 0.074008
8641.43652 0.074303
8642.15234 0.074598
8642.86719 0.074894
8643.58105 0.075189
8644.29590 0.075484
8645.01074 0.075778
8645.72559 0.075971
8646.44043 0.076163
8647.15527 0.076356
8647.87012 0.076548
8648.58496 0.076741
8649.29980 0.076934
8650.01562 0.077126
8650.73047 0.077303
8651.44531 0.077479
8652.16113 0.077656
8652.87598 0.077833
8653.59180 0.07801
8654.30762 0.078186
8655.02246 0.078361
8655.73828 0.078474
8656.45410 0.078587
8657.16992 0.0787
8657.88574 0.078813
8658.60156 0.078926
8659.31738 0.079039
8660.03320 0.079149
8660.74902 0.079214
8661.46484 0.079279
8662.18164 0.079344
8662.89746 0.079409
8663.61426 0.079474
8664.33008 0.079539
8665.04688 0.079605
8665.76270 0.079679
8666.47852 0.079754
8667.19629 0.079829
8667.91309 0.079904
8668.62891 0.079979
8669.34570 0.080054
8670.06348 0.080128
8670.77930 0.080194
8671.49609 0.080261
8672.21387 0.080327
8672.93066 0.080394
8673.64746 0.08046
8674.36426 0.080527
8675.08203 0.080595
8675.79883 0.08068
8676.51660 0.080764
8677.23340 0.080848
8677.95117 0.080933
8678.66895 0.081017
8679.38672 0.081102
8680.10352 0.081187
8680.82129 0.081276
8681.53906 0.081366
8682.25684 0.081456
8682.97461 0.081546
8683.69238 0.081636
8684.41113 0.081725
8685.12891 0.081816
8685.84668 0.081911
8686.56543 0.082005
8687.28320 0.0821
8688.00195 0.082194
8688.71973 0.082289
8689.43848 0.082384
8690.15625 0.082485
8690.87500 0.082612
8691.59375 0.082738
8692.31348 0.082865
8693.03125 0.082991
8693.75000 0.083118
8694.46875 0.083244
8695.18652 0.083358
8695.90625 0.083436
8696.62500 0.083515
8697.34473 0.083593
8698.06348 0.083672
8698.78223 0.08375
8699.50195 0.083828
8700.22070 0.083906
8700.94043 0.083983
8701.66016 0.084059
8702.37891 0.084135
8703.09863 0.084211
8703.81836 0.084288
8704.53809 0.084364
8705.25781 0.084413
8705.97754 0.084413
8706.69727 0.084414
8707.41699 0.084414
8708.13672 0.084414
8708.85645 0.084415
8709.57715 0.084415
8710.29688 0.084376
8711.01758 0.08428
8711.73730 0.084185
8712.45801 0.08409
8713.17773 0.083994
8713.89844 0.083899
8714.61914 0.083804
8715.33984 0.08369
8716.05957 0.083555
8716.78027 0.08342
8717.50098 0.083286
8718.22168 0.083151
8718.94336 0.083016
8719.66406 0.082881
8720.38477 0.082702
8721.10547 0.082483
8721.82715 0.082264
8722.54785 0.082045
8723.26953 0.081826
8723.99023 0.081607
8724.71191 0.081388
8725.43262 0.081087
8726.15430 0.080731
8726.87598 0.080374
8727.59766 0.080018
8728.31934 0.079662
8729.04102 0.079306
8729.76270 0.07895
8730.48438 0.078592
8731.20605 0.078233
8731.92773 0.077875
8732.64941 0.077516
8733.37207 0.077157
8734.09375 0.076799
8734.81641 0.07644
8735.53809 0.076014
8736.26074 0.075564
8736.98242 0.075115
8737.70508 0.074665
8738.42773 0.074215
8739.15039 0.073766
8739.87305 0.073316
8740.59570 0.072868
8741.31836 0.072421
8742.04102 0.071974
8742.76367 0.071527
8743.48633 0.07108
8744.20898 0.070633
8744.93262 0.070186
8745.65527 0.069674
8746.37793 0.069156
8747.10156 0.068637
8747.82422 0.06812
8748.54785 0.067601
8749.27148 0.067082
8749.99414 0.066565
8750.71777 0.066166
8751.44141 0.065768
8752.16504 0.06537
8752.88867 0.064972
8753.61230 0.064574
8754.33594 0.064176
8755.05957 0.063782
8755.78418 0.063426
8756.50781 0.063071
8757.23145 0.062717
8757.95605 0.062361
8758.67969 0.062006
8759.40430 0.061651
8760.12793 0.061298
8760.85254 0.060955
8761.57715 0.060611
8762.30176 0.060267
8763.02539 0.059924
8763.75000 0.05958
8764.47461 0.059236
8765.19922 0.058904
8765.92383 0.058603
8766.64941 0.058302
8767.37402 0.058001
8768.09863 0.0577
8768.82324 0.057399
8769.54883 0.057097
8770.27344 0.056814
8770.99902 0.056561
8771.72363 0.056308
8772.44922 0.056054
8773.17480 0.0558
8773.90039 0.055547
8774.62500 0.055294
8775.35059 0.055071
8776.07617 0.054881
8776.80176 0.054691
8777.52734 0.054502
8778.25293 0.054312
8778.97852 0.054122
8779.70508 0.053932
8780.43066 0.053741
8781.15723 0.053547
8781.88281 0.053355
8782.60938 0.053161
8783.33496 0.052969
8784.06152 0.052776
8784.78711 0.052583
8785.51367 0.052423
8786.24023 0.052277
8786.96680 0.052131
8787.69336 0.051985
8788.41992 0.05184
8789.14648 0.051694
8789.87305 0.051548
8790.59961 0.051397
8791.32617 0.051245
8792.05371 0.051093
8792.78027 0.050941
8793.50781 0.050789
8794.23438 0.050637
8794.96191 0.050485
8795.68848 0.050308
8796.41602 0.050128
8797.14355 0.049949
8797.87012 0.04977
8798.59766 0.04959
8799.32520 0.049411
8800.05273 0.049233
8800.78027 0.049076
8801.50781 0.048918
8802.23633 0.04876
8802.96387 0.048603
8803.69141 0.048445
8804.41895 0.048287
8805.14746 0.048126
8805.87500 0.047952
8806.60352 0.047778
8807.33105 0.047604
8808.05957 0.04743
8808.78809 0.047256
8809.51660 0.047082
8810.24414 0.046902
8810.97266 0.046709
8811.70117 0.046516
8812.42969 0.046323
8813.15918 0.04613
8813.88770 0.045937
8814.61621 0.045744
8815.34473 0.045547
8816.07324 0.045348
8816.80273 0.045148
8817.53125 0.044948
8818.26074 0.044748
8818.98926 0.044548
8819.71875 0.044348
8820.44824 0.044143
8821.17773 0.043936
8821.90625 0.043728
8822.63574 0.043521
8823.36523 0.043313
8824.09473 0.043106
8824.82422 0.042898
8825.55469 0.042666
8826.28418 0.042426
8827.01367 0.042187
8827.74316 0.041947
8828.47363 0.041707
8829.20312 0.041467
8829.93359 0.041228
8830.66309 0.040993
8831.39355 0.040759
8832.12402 0.040525
8832.85352 0.040291
8833.58398 0.040057
8834.31445 0.039823
8835.04492 0.039593
8835.77539 0.03941
8836.50586 0.039228
8837.23633 0.039046
8837.96680 0.038864
8838.69824 0.038681
8839.42871 0.038499
8840.15918 0.038319
8840.89062 0.038147
8841.62109 0.037975
8842.35254 0.037803
8843.08398 0.037631
8843.81445 0.037459
8844.54590 0.037287
8845.27734 0.037129
8846.00879 0.036993
8846.74023 0.036858
8847.47168 0.036722
8848.20312 0.036586
8848.93457 0.036451
8849.66602 0.036315
8850.39746 0.036201
8851.12988 0.036103
8851.86133 0.036006
8852.59277 0.035909
8853.32520 0.035812
8854.05664 0.035715
8854.78906 0.035618
8855.52148 0.03554
8856.25293 0.035468
8856.98535 0.035397
8857.71777 0.035326
8858.45020 0.035254
8859.18262 0.035183
8859.91504 0.035112
8860.64746 0.035087
8861.37988 0.035068
8862.11328 0.035049
8862.84570 0.03503
8863.57812 0.035011
8864.31152 0.034992
8865.04395 0.034976
8865.77734 0.035006
8866.50977 0.035037
8867.24316 0.035068
8867.97656 0.035098
8868.70996 0.035129
8869.44238 0.035159
8870.17578 0.035204
8870.90918 0.035293
8871.64258 0.035382
8872.37598 0.035471
8873.11035 0.035561
8873.84375 0.03565
8874.57715 0.035739
8875.31152 0.035846
8876.04492 0.035979
8876.77832 0.036111
8877.51270 0.036244
8878.24707 0.036376
8878.98047 0.036509
8879.71484 0.036641
8880.44922 0.036797
8881.18359 0.036968
8881.91797 0.037138
8882.65234 0.037308
8883.38672 0.037479
8884.12109 0.037649
8884.85547 0.037819
8885.58984 0.038029
8886.32422 0.038247
8887.05957 0.038466
8887.79395 0.038685
8888.52930 0.038904
8889.26367 0.039122
8889.99902 0.039341
8890.73340 0.039602
8891.46875 0.039863
8892.20410 0.040124
8892.93945 0.040385
8893.67480 0.040646
8894.41016 0.040907
8895.14648 0.041167
8895.88086 0.041425
8896.61621 0.041683
8897.35156 0.041941
8898.08691 0.042199
8898.82324 0.042457
8899.55859 0.042715
8900.29492 0.042965
8901.03027 0.043204
8901.76660 0.043443
8902.50195 0.043681
8903.23828 0.04392
8903.97461 0.044159
8904.71094 0.044398
8905.44727 0.044626
8906.18359 0.044848
8906.91992 0.04507
8907.65625 0.045292
8908.39258 0.045514
8909.12891 0.045736
8909.86523 0.045957
8910.60254 0.046142
8911.33887 0.046318
8912.07617 0.046494
8912.81152 0.04667
8913.54980 0.046846
8914.28613 0.047021
8915.02344 0.047196
8915.76074 0.047309
8916.49805 0.047423
8917.23535 0.047537
8917.97266 0.047651
8918.70996 0.047764
8919.44727 0.047878
8920.18457 0.04797
8920.92188 0.047999
8921.65918 0.048028
8922.39746 0.048056
8923.13477 0.048085
8923.87305 0.048113
8924.61035 0.048142
8925.34863 0.048133
8926.08594 0.048083
8926.82422 0.048033
8927.56348 0.047983
8928.30078 0.047933
8929.03906 0.047882
8929.77734 0.047832
8930.51562 0.047735
8931.25391 0.047618
8931.99219 0.0475
8932.73047 0.047383
8933.46875 0.047265
8934.20801 0.047148
8934.94629 0.04703
8935.68555 0.046857
8936.42383 0.04668
8937.16309 0.046503
8937.90137 0.046326
8938.64062 0.046148
8939.37988 0.045971
8940.11914 0.045788
8940.85840 0.045577
8941.59766 0.045365
8942.33691 0.045153
8943.07617 0.044942
8943.81543 0.04473
8944.55469 0.044519
8945.29395 0.044298
8946.03418 0.044064
8946.77344 0.04383
8947.51367 0.043596
8948.25293 0.043362
8948.99316 0.043128
8949.73242 0.042894
8950.47266 0.042658
8951.21289 0.042421
8951.95312 0.042185
8952.69336 0.041948
8953.43359 0.041711
8954.17383 0.041475
8954.91406 0.041238
8955.65430 0.041027
8956.39453 0.040819
8957.13477 0.04061
8957.87598 0.040402
8958.61621 0.040194
8959.35742 0.039985
8960.09766 0.039783
8960.83887 0.039623
8961.57910 0.039462
8962.32031 0.039302
8963.06152 0.039141
8963.80273 0.03898
8964.54395 0.03882
8965.28516 0.038672
8966.02637 0.038546
8966.76758 0.038419
8967.50879 0.038293
8968.25000 0.038166
8968.99121 0.03804
8969.73340 0.037913
8970.47461 0.037822
8971.21680 0.037751
8971.95801 0.03768
8972.70020 0.037609
8973.44238 0.037538
8974.18359 0.037467
8974.92578 0.037396
8975.66797 0.03738
8976.41016 0.037371
8977.15234 0.037361
8977.89453 0.037351
8978.63672 0.037342
8979.37891 0.037332
8980.12109 0.037332
8980.86426 0.037383
8981.60645 0.037433
8982.34863 0.037484
8983.09180 0.037534
8983.83398 0.037585
8984.57715 0.037636
8985.32031 0.037715
8986.06152 0.037831
8986.80566 0.037947
8987.54883 0.038064
8988.29199 0.03818
8989.03516 0.038296
8989.77832 0.038413
8990.52148 0.038584
8991.26465 0.038778
8992.00879 0.038972
8992.75195 0.039166
8993.49512 0.039361
8994.23926 0.039555
8994.98242 0.039749
8995.72656 0.039978
8996.46973 0.040208
8997.21387 0.040437
8997.95801 0.040667
8998.70117 0.040897
8999.44531 0.041126
9000.18945 0.041382
9000.93359 0.041713
9001.67773 0.042045
9002.42188 0.042376
9003.16699 0.042709
9003.91113 0.043041
9004.65527 0.043373
9005.40039 0.04374
9006.14453 0.044138
9006.88867 0.044535
9007.63379 0.044933
9008.37891 0.045332
9009.12305 0.04573
9009.86816 0.046129
9010.61328 0.046583
9011.35840 0.047048
9012.10352 0.047514
9012.84863 0.04798
9013.59375 0.048446
9014.33887 0.048912
9015.08398 0.049385
9015.82910 0.049911
9016.57520 0.050437
9017.32031 0.050963
9018.06543 0.051489
9018.81152 0.052016
9019.55762 0.052544
9020.30273 0.053074
9021.04883 0.053611
9021.79492 0.054147
9022.54004 0.054684
9023.28613 0.055221
9024.03223 0.055759
9024.77832 0.056296
9025.52441 0.056848
9026.27148 0.057405
9027.01758 0.057964
9027.76367 0.058522
9028.50977 0.05908
9029.25684 0.05964
9030.00293 0.060199
9030.75000 0.060762
9031.49609 0.061324
9032.24316 0.061887
9032.99023 0.062451
9033.73633 0.063014
9034.48340 0.063578
9035.23047 0.064125
9035.97754 0.064635
9036.72461 0.065144
9037.47168 0.065654
9038.21875 0.066165
9038.96582 0.066675
9039.71387 0.067187
9040.46094 0.067698
9041.20801 0.06821
9041.95605 0.068723
9042.70312 0.069235
9043.45117 0.069748
9044.19922 0.070262
9044.94629 0.070775
9045.69434 0.071221
9046.44238 0.071662
9047.19043 0.072104
9047.93848 0.072545
9048.68652 0.072987
9049.43457 0.073429
9050.18262 0.073845
9050.93066 0.074181
9051.67969 0.074518
9052.42773 0.074855
9053.17676 0.075192
9053.92480 0.07553
9054.67383 0.075867
9055.42188 0.07616
9056.17090 0.07642
9056.91992 0.076679
9057.66797 0.076938
9058.41699 0.077198
9059.16602 0.077458
9059.91504 0.077718
9060.66406 0.077918
9061.41309 0.07811
9062.16211 0.078303
9062.91211 0.078496
9063.66113 0.078689
9064.41016 0.078882
9065.16016 0.079058
9065.90918 0.079169
9066.65918 0.079281
9067.40820 0.079393
9068.15820 0.079505
9068.90820 0.079616
9069.65820 0.079728
9070.40820 0.079824
9071.15723 0.079905
9071.90723 0.079986
9072.65820 0.080067
9073.40820 0.080148
9074.15820 0.08023
9074.90820 0.080311
9075.65820 0.080358
9076.40918 0.080401
9077.15918 0.080443
9077.91016 0.080485
9078.66016 0.080528
9079.41113 0.08057
9080.16211 0.080609
9080.91211 0.080633
9081.66309 0.080657
9082.41406 0.08068
9083.16504 0.080704
9083.91602 0.080728
9084.66699 0.080752
9085.41797 0.080779
9086.16992 0.080808
9086.92090 0.080837
9087.67188 0.080867
9088.42383 0.080896
9089.17480 0.080925
9089.92676 0.080954
9090.67773 0.080987
9091.42969 0.081019
9092.18066 0.081052
9092.93262 0.081084
9093.68457 0.081117
9094.43652 0.08115
9095.18848 0.081188
9095.94043 0.081241
9096.69238 0.081295
9097.44434 0.081349
9098.19629 0.081403
9098.94922 0.081456
9099.70117 0.08151
9100.45410 0.081577
9101.20605 0.081653
9101.95898 0.081729
9102.71094 0.081805
9103.46387 0.081881
9104.21680 0.081957
9104.96875 0.082033
9105.72168 0.082117
9106.47461 0.082202
9107.22754 0.082286
9107.98047 0.082371
9108.73340 0.082456
9109.48730 0.082541
9110.24023 0.082633
9110.99316 0.08274
9111.74609 0.082847
9112.50000 0.082955
9113.25293 0.083062
9114.00684 0.08317
9114.76074 0.083277
9115.51367 0.083386
9116.26758 0.083496
9117.02148 0.083606
9117.77539 0.083715
9118.52930 0.083825
9119.28320 0.083935
9120.03711 0.084046
9120.79102 0.084163
9121.54492 0.08428
9122.29883 0.084397
9123.05371 0.084514
9123.80762 0.084632
9124.56152 0.084749
9125.31641 0.084859
9126.07129 0.084957
9126.82520 0.085055
9127.58008 0.085154
9128.33496 0.085252
9129.08984 0.085351
9129.84473 0.08545
9130.59863 0.085549
9131.35352 0.085649
9132.10938 0.085748
9132.86426 0.085848
9133.61914 0.085948
9134.37402 0.086048
9135.12988 0.086146
9135.88477 0.086235
9136.64062 0.086325
9137.39648 0.086414
9138.15137 0.086503
9138.90625 0.086593
9139.66211 0.086682
9140.41797 0.086766
9141.17383 0.086844
9141.92969 0.086922
9142.68555 0.087
9143.44141 0.087078
9144.19727 0.087157
9144.95312 0.087235
9145.70898 0.087289
9146.46582 0.087341
9147.22168 0.087394
9147.97754 0.087446
9148.73438 0.087499
9149.49023 0.087551
9150.24707 0.087601
9151.00391 0.087644
9151.76074 0.087688
9152.51660 0.087731
9153.27344 0.087775
9154.03027 0.087819
9154.78711 0.087862
9155.54395 0.087892
9156.30078 0.087917
9157.05859 0.087942
9157.81543 0.087967
9158.57227 0.087991
9159.33008 0.088016
9160.08691 0.088041
9160.84473 0.088063
9161.60156 0.088085
9162.35938 0.088107
9163.11719 0.088129
9163.87402 0.088151
9164.63184 0.088173
9165.38965 0.088192
9166.14746 0.088208
9166.90527 0.088225
9167.66309 0.088241
9168.42090 0.088257
9169.17969 0.088274
9169.93652 0.08829
9170.69531 0.088308
9171.45410 0.088325
9172.21191 0.088343
9172.97070 0.088361
9173.72852 0.088379
9174.48730 0.088397
9175.24609 0.088414
9176.00488 0.088431
9176.76367 0.088447
9177.52246 0.088463
9178.28125 0.088479
9179.04004 0.088495
9179.79883 0.088511
9180.55762 0.088526
9181.31641 0.088541
9182.07617 0.088555
9182.83496 0.088569
9183.59375 0.088584
9184.35352 0.088598
9185.11230 0.088614
9185.87207 0.08864
9186.63184 0.088666
9187.39160 0.088692
9188.15039 0.088718
9188.91016 0.088744
9189.66992 0.08877
9190.42969 0.088785
9191.18945 0.088793
9191.95020 0.088801
9192.70996 0.088809
9193.46973 0.088817
9194.22852 0.088825
9194.99023 0.088833
9195.75000 0.088847
9196.51074 0.08886
9197.27148 0.088874
9198.03125 0.088888
9198.79199 0.088902
9199.55273 0.088916
9200.31348 0.088924
9201.07422 0.088926
9201.83496 0.088928
9202.59570 0.088929
9203.35645 0.088931
9204.11719 0.088932
9204.87793 0.088934
9205.63965 0.088915
9206.40039 0.088893
9207.16113 0.08887
9207.92285 0.088848
9208.68359 0.088825
9209.44531 0.088803
9210.20703 0.088776
9210.96875 0.08874
9211.72852 0.088704
9212.49121 0.088668
9213.25293 0.088631
9214.01465 0.088595
9214.77637 0.088558
9215.53906 0.088507
9216.30078 0.08845
9217.06348 0.088392
9217.82422 0.088335
9218.58691 0.088277
9219.34863 0.088219
9220.11133 0.088159
9220.87305 0.08808
9221.63574 0.088002
9222.39844 0.087923
9223.16113 0.087844
9223.92383 0.087766
9224.68652 0.087687
9225.44922 0.087593
9226.21191 0.08749
9226.97461 0.087386
9227.73730 0.087282
9228.50000 0.087177
9229.26270 0.087073
9230.02637 0.086968
9230.78906 0.086835
9231.55273 0.086703
9232.31543 0.08657
9233.07910 0.086437
9233.84277 0.086304
9234.60645 0.086171
9235.36914 0.086029
9236.13281 0.085878
9236.89648 0.085726
9237.66016 0.085575
9238.42383 0.085423
9239.18848 0.085271
9239.95215 0.085119
9240.71582 0.084953
9241.47852 0.084785
9242.24414 0.084617
9243.00781 0.084449
9243.77246 0.084281
9244.53613 0.084113
9245.30078 0.083953
9246.06543 0.083805
9246.83008 0.083658
9247.59473 0.08351
9248.35938 0.083363
9249.12402 0.083215
9249.88867 0.083067
9250.65332 0.082914
9251.41797 0.082761
9252.18262 0.082607
9252.94727 0.082453
9253.71289 0.082299
9254.47754 0.082145
9255.24316 0.081993
9256.00781 0.081844
9256.77344 0.081695
9257.53906 0.081547
9258.30469 0.081398
9259.06934 0.081249
9259.83496 0.081099
9260.60059 0.080973
9261.36621 0.080854
9262.13184 0.080734
9262.89844 0.080614
9263.66406 0.080494
9264.42969 0.080373
9265.19629 0.080254
9265.96191 0.080137
9266.72754 0.080021
9267.49414 0.079904
9268.26074 0.079787
9269.02637 0.07967
9269.79297 0.079552
9270.55957 0.079463
9271.32617 0.079383
9272.09277 0.079304
9272.85938 0.079224
9273.62598 0.079144
9274.39258 0.079064
9275.15918 0.078991
9275.92578 0.078944
9276.69336 0.078896
9277.45996 0.078849
9278.22754 0.078801
9278.99414 0.078754
9279.76172 0.078706
9280.52832 0.078683
9281.29590 0.078671
9282.06348 0.078658
9282.83105 0.078646
9283.59863 0.078634
9284.36621 0.078621
9285.13379 0.078615
9285.90137 0.078636
9286.66895 0.078658
9287.43652 0.078679
9288.20508 0.0787
9288.97266 0.078722
9289.74023 0.078743
9290.50879 0.078783
9291.27637 0.078831
9292.04492 0.07888
9292.81348 0.078929
9293.58203 0.078978
9294.34961 0.079027
9295.11816 0.079079
9295.88672 0.079151
9296.65527 0.079224
9297.42383 0.079296
9298.19336 0.079369
9298.96191 0.079441
9299.73047 0.079514
9300.49902 0.079608
9301.26855 0.079714
9302.03711 0.07982
9302.80664 0.079926
9303.57520 0.080032
9304.34473 0.080138
9305.11426 0.080247
9305.88379 0.080372
9306.65332 0.080496
9307.42188 0.080621
9308.19141 0.080745
9308.96191 0.08087
9309.73145 0.080995
9310.50098 0.081128
9311.27148 0.081265
9312.04004 0.081403
9312.81055 0.081541
9313.58008 0.081679
9314.35059 0.081817
9315.12012 0.081956
9315.89062 0.082104
9316.66113 0.082252
9317.43164 0.0824
9318.20117 0.082548
9318.97168 0.082696
9319.74219 0.082845
9320.51270 0.082991
9321.28418 0.083137
9322.05469 0.083282
9322.82520 0.083428
9323.59570 0.083573
9324.36719 0.083719
9325.13770 0.083865
9325.90918 0.084014
9326.67969 0.084163
9327.45117 0.084312
9328.22168 0.084461
9328.99316 0.084611
9329.76465 0.08476
9330.53613 0.084914
9331.30762 0.085071
9332.07910 0.085227
9332.85059 0.085384
9333.62207 0.085541
9334.39355 0.085697
9335.16602 0.085849
9335.93848 0.085982
9336.70898 0.086115
9337.48145 0.086249
9338.25293 0.086382
9339.02539 0.086515
9339.79785 0.086649
9340.56934 0.086783
9341.34180 0.086918
9342.11426 0.087054
9342.88672 0.087189
9343.65918 0.087325
9344.43164 0.08746
9345.20410 0.087587
9345.97754 0.08769
9346.75000 0.087793
9347.52246 0.087895
9348.29590 0.087998
9349.06836 0.088101
9349.84180 0.088204
9350.61426 0.088304
9351.38770 0.088405
9352.16016 0.088505
9352.93359 0.088605
9353.70703 0.088706
9354.48047 0.088806
9355.25391 0.088901
9356.02734 0.088987
9356.80078 0.089073
9357.57422 0.089158
9358.34863 0.089244
9359.12207 0.08933
9359.89648 0.089415
9360.66992 0.089498
9361.44336 0.089579
9362.21777 0.089661
9362.99219 0.089743
9363.76562 0.089825
9364.54004 0.089907
9365.31445 0.089984
9366.08887 0.090053
9366.86328 0.090123
9367.63770 0.090193
9368.41211 0.090262
9369.18652 0.090332
9369.96094 0.090401
9370.73633 0.090461
9371.51074 0.09052
9372.28516 0.090578
9373.06055 0.090637
9373.83496 0.090696
9374.61035 0.090755
9375.38574 0.090812
9376.16016 0.090867
9376.93555 0.090922
9377.71094 0.090978
9378.48633 0.091033
9379.26172 0.091088
9380.03711 0.091143
9380.81348 0.09119
9381.58887 0.091237
9382.36426 0.091283
9383.13965 0.09133
9383.91602 0.091377
9384.69141 0.091424
9385.46777 0.091478
9386.24316 0.091536
9387.01953 0.091594
9387.79590 0.091652
9388.57227 0.091711
9389.34766 0.091769
9390.12402 0.091825
9390.90039 0.091869
9391.67676 0.091914
9392.45410 0.091958
9393.23047 0.092002
9394.00684 0.092047
9394.78320 0.092091
9395.56055 0.092134
9396.33691 0.092176
9397.11426 0.092219
9397.89062 0.092261
9398.66797 0.092304
9399.44531 0.092346
9400.22168 0.092388
9400.99902 0.092428
9401.77637 0.092468
9402.55371 0.092508
9403.33105 0.092548
9404.10840 0.092588
9404.88672 0.092628
9405.66406 0.092666
9406.44141 0.092703
9407.21973 0.092741
9407.99707 0.092778
9408.77539 0.092815
9409.55273 0.092853
9410.33105 0.092889
9411.10938 0.092924
9411.88672 0.09296
9412.66504 0.092995
9413.44336 0.09303
9414.22168 0.093066
9415.00000 0.093101
9415.77832 0.093127
9416.55664 0.093152
9417.33594 0.093178
9418.11426 0.093203
9418.89258 0.093229
9419.67188 0.093255
9420.45020 0.093273
9421.22852 0.093286
9422.00781 0.093299
9422.78711 0.093312
9423.56641 0.093325
9424.34570 0.093338
9425.12500 0.093353
9425.90430 0.093379
9426.68359 0.093405
9427.46289 0.09343
9428.24219 0.093456
9429.02148 0.093482
9429.80078 0.093508
9430.58105 0.093519
9431.36035 0.093525
9432.14062 0.093531
9432.91992 0.093538
9433.70020 0.093544
9434.48047 0.09355
9435.25977 0.093559
9436.04004 0.093572
9436.82031 0.093585
9437.60059 0.093598
9438.38086 0.093611
9439.16113 0.093624
9439.94141 0.093637
9440.72266 0.093654
9441.50293 0.09367
9442.28320 0.093687
9443.06445 0.093704
9443.84473 0.09372
9444.62598 0.093737
9445.40625 0.093754
9446.18652 0.093771
9446.96875 0.093789
9447.75000 0.093806
9448.53027 0.093824
9449.31152 0.093841
9450.09277 0.093859
9450.87402 0.093886
9451.65625 0.093913
9452.43652 0.09394
9453.21875 0.093966
9454.00000 0.093993
9454.78223 0.09402
9455.56348 0.094054
9456.34570 0.094091
9457.12793 0.094129
9457.90918 0.094166
9458.69141 0.094203
9459.47363 0.09424
9460.25586 0.094277
9461.03809 0.094314
9461.82031 0.094352
9462.60254 0.094389
9463.38477 0.094426
9464.16699 0.094463
9464.94922 0.094501
9465.73242 0.094554
9466.51465 0.094608
9467.29688 0.094662
9468.08008 0.094716
9468.86328 0.094771
9469.64648 0.094825
9470.42871 0.094877
9471.21191 0.094927
9471.99512 0.094977
9472.77832 0.095027
9473.56152 0.095077
9474.34473 0.095127
9475.12793 0.095178
9475.91113 0.095232
9476.69434 0.095287
9477.47852 0.095342
9478.26172 0.095396
9479.04590 0.095451
9479.82910 0.095506
9480.61328 0.095569
9481.39648 0.095634
9482.18066 0.0957
9482.96484 0.095766
9483.74902 0.095831
9484.53320 0.095897
9485.31738 0.095959
9486.10156 0.096016
9486.88574 0.096073
9487.66992 0.09613
9488.45410 0.096186
9489.23926 0.096243
9490.02344 0.0963
9490.80762 0.096355
9491.59277 0.09641
9492.37793 0.096464
9493.16211 0.096519
9493.94727 0.096574
9494.73242 0.096629
9495.51758 0.096678
9496.30273 0.096723
9497.08789 0.096769
9497.87305 0.096814
9498.65820 0.09686
9499.44336 0.096906
9500.22852 0.096945
9501.01465 0.096968
9501.79980 0.096992
9502.58496 0.097015
9503.37109 0.097038
9504.15723 0.097062
9504.94238 0.097085
9505.72852 0.097096
9506.51465 0.097105
9507.30078 0.097114
9508.08594 0.097123
9508.87207 0.097133
9509.65918 0.097142
9510.44531 0.09714
9511.23145 0.097131
9512.01758 0.097121
9512.80371 0.097111
9513.59082 0.097102
9514.37695 0.097092
9515.16406 0.097081
9515.95020 0.097067
9516.73730 0.097053
9517.52441 0.097039
9518.31152 0.097025
9519.09766 0.09701
9519.88477 0.096996
9520.67188 0.096959
9521.45898 0.096918
9522.24609 0.096878
9523.03418 0.096837
9523.82129 0.096796
9524.60840 0.096755
9525.39648 0.096708
9526.18359 0.096654
9526.97168 0.096601
9527.75879 0.096548
9528.54688 0.096494
9529.33496 0.09644
9530.12207 0.096387
9530.91016 0.096338
9531.69824 0.096288
9532.48633 0.096238
9533.27441 0.096188
9534.06348 0.096138
9534.85156 0.096088
9535.63965 0.096038
9536.42773 0.095986
9537.21680 0.095935
9538.00488 0.095884
9538.79395 0.095833
9539.58203 0.095782
9540.37109 0.09573
9541.15918 0.095678
9541.94824 0.095625
9542.73730 0.095573
9543.52637 0.09552
9544.31543 0.095467
9545.10352 0.095417
9545.89355 0.095382
9546.68262 0.095347
9547.47266 0.095312
9548.26172 0.095277
9549.05078 0.095242
9549.84082 0.095207
9550.62988 0.095182
9551.41992 0.095161
9552.20996 0.095139
9552.99902 0.095118
9553.78906 0.095096
9554.57910 0.095075
9555.36914 0.095063
9556.15918 0.095062
9556.94922 0.095061
9557.73926 0.09506
9558.52930 0.095059
9559.32031 0.095059
9560.11035 0.095062
9560.90039 0.095088
9561.69141 0.095115
9562.48145 0.095142
9563.27246 0.095168
9564.06348 0.095195
9564.85352 0.095222
9565.64453 0.095263
9566.43555 0.095308
9567.22656 0.095353
9568.01758 0.095398
9568.80859 0.095443
9569.59961 0.095488
9570.39062 0.095546
9571.18262 0.095617
9571.97363 0.095688
9572.76465 0.09576
9573.55664 0.095831
9574.34766 0.095902
9575.13965 0.095978
9575.93164 0.096076
9576.72266 0.096173
9577.51465 0.09627
9578.30664 0.096368
9579.09863 0.096465
9579.89062 0.096563
9580.68262 0.096683
9581.47461 0.096807
9582.26660 0.096931
9583.05957 0.097055
9583.85156 0.097179
9584.64355 0.097303
9585.43652 0.097436
9586.22852 0.097577
9587.02148 0.097717
9587.81445 0.097858
9588.60645 0.097998
9589.39941 0.098139
9590.19238 0.098282
9590.98535 0.098434
9591.77832 0.098586
9592.57129 0.098739
9593.36426 0.098891
9594.15723 0.099043
9594.95117 0.099196
9595.74414 0.099346
9596.53711 0.099496
9597.33105 0.099646
9598.12500 0.099796
9598.91797 0.099946
9599.71191 0.100096
9600.50586 0.100247
9601.29883 0.100398
9602.09277 0.10055
9602.88672 0.100701
9603.68066 0.100853
9604.47461 0.101004
9605.26855 0.101155
9606.06348 0.101304
9606.85742 0.101453
9607.65137 0.101603
9608.44629 0.101752
9609.24023 0.101902
9610.03516 0.102051
9610.82910 0.102187
9611.62402 0.102324
9612.41895 0.102461
9613.21387 0.102598
9614.00879 0.102735
9614.80371 0.102872
9615.59863 0.102998
9616.39355 0.103121
9617.18848 0.103244
9617.98340 0.103367
9618.77832 0.10349
9619.57422 0.103614
9620.36914 0.103731
9621.16504 0.103842
9621.95996 0.103954
9622.75586 0.104065
9623.55176 0.104176
9624.34668 0.104288
9625.14258 0.104393
9625.93848 0.104469
9626.73438 0.104546
9627.53027 0.104623
9628.32617 0.1047
9629.12207 0.104777
9629.91895 0.104854
9630.71484 0.104912
9631.51074 0.104968
9632.30762 0.105024
9633.10352 0.10508
9633.90039 0.105136
9634.69629 0.105192
9635.49316 0.105245
9636.29004 0.105294
9637.08691 0.105344
9637.88379 0.105393
9638.68066 0.105443
9639.47754 0.105492
9640.27441 0.105534
9641.07129 0.105563
9641.86816 0.105591
9642.66602 0.10562
9643.46289 0.105648
9644.25977 0.105676
9645.05762 0.105705
9645.85547 0.10573
9646.65234 0.105756
9647.45020 0.105781
9648.24805 0.105807
9649.04590 0.105832
9649.84277 0.105858
9650.64062 0.105881
9651.43945 0.105903
9652.23730 0.105925
9653.03516 0.105947
9653.83301 0.105969
9654.63086 0.105991
9655.42969 0.106015
9656.22754 0.10604
9657.02637 0.106065
9657.82422 0.10609
9658.62305 0.106115
9659.42188 0.10614
9660.22070 0.106165
9661.01953 0.106188
9661.81738 0.106212
9662.61621 0.106235
9663.41602 0.106259
9664.21484 0.106283
9665.01367 0.106306
9665.81152 0.106344
9666.61230 0.106382
9667.41113 0.10642
9668.20996 0.106458
9669.00977 0.106496
9669.80957 0.106534
9670.60840 0.106575
9671.40820 0.106617
9672.20801 0.106659
9673.00781 0.106701
9673.80762 0.106744
9674.60742 0.106786
9675.40723 0.10684
9676.20703 0.106906
9677.00684 0.106972
9677.80664 0.107038
9678.60742 0.107104
9679.40723 0.10717
9680.20801 0.107235
9681.00781 0.107301
9681.80859 0.107366
9682.60938 0.107431
9683.40918 0.107497
9684.20996 0.107562
9685.01074 0.107628
9685.81152 0.107696
9686.61230 0.107764
9687.41309 0.107833
9688.21387 0.107902
9689.01562 0.10797
9689.81641 0.108039
9690.61719 0.108114
9691.41895 0.10819
9692.21973 0.108266
9693.02148 0.108342
9693.82324 0.108419
9694.62402 0.108495
9695.42578 0.10857
9696.22754 0.108645
9697.02930 0.108719
9697.83105 0.108793
9698.63281 0.108868
9699.43457 0.108942
9700.23633 0.109012
9701.03809 0.109072
9701.84082 0.109133
9702.64258 0.109193
9703.44531 0.109253
9704.24707 0.109314
9705.04980 0.109374
9705.85156 0.109435
9706.65430 0.109497
9707.45703 0.109558
9708.25977 0.109619
9709.06152 0.109681
9709.86523 0.109742
9710.66797 0.109787
9711.47070 0.109828
9712.27344 0.109869
9713.07715 0.109911
9713.87988 0.109952
9714.68262 0.109994
9715.48633 0.110025
9716.28906 0.11005
9717.09277 0.110076
9717.89648 0.110101
9718.69922 0.110126
9719.50293 0.110152
9720.30664 0.110176
9721.11035 0.110198
9721.91406 0.11022
9722.71777 0.110242
9723.52148 0.110264
9724.32617 0.110287
9725.12988 0.110307
9725.93359 0.110314
9726.73828 0.110321
9727.54199 0.110328
9728.34668 0.110336
9729.15039 0.110343
9729.95508 0.11035
9730.75977 0.110346
9731.56445 0.110341
9732.36914 0.110336
9733.17383 0.11033
9733.97852 0.110325
9734.78320 0.11032
9735.58789 0.110313
9736.39258 0.110305
9737.19824 0.110297
9738.00293 0.110289
9738.80762 0.110281
9739.61328 0.110273
9740.41797 0.110265
9741.22363 0.110256
9742.02930 0.110248
9742.83496 0.110239
9743.64062 0.110231
9744.44531 0.110222
9745.25098 0.110214
9746.05762 0.110208
9746.86328 0.110201
9747.66895 0.110195
9748.47461 0.110188
9749.28125 0.110181
9750.08691 0.110176
9750.89258 0.110185
9751.69922 0.110194
9752.50586 0.110203
9753.31152 0.110213
9754.11816 0.110222
9754.92480 0.110231
9755.73145 0.110255
9756.53809 0.110281
9757.34473 0.110307
9758.15137 0.110333
9758.95801 0.110359
9759.76465 0.110385
9760.57129 0.110423
9761.37891 0.110466
9762.18555 0.110508
9762.99316 0.110551
9763.79980 0.110593
9764.60742 0.110636
9765.41504 0.110687
9766.22266 0.110746
9767.02930 0.110805
9767.83691 0.110865
9768.64453 0.110924
9769.45215 0.110983
9770.25977 0.111048
9771.06836 0.111127
9771.87598 0.111205
9772.68359 0.111283
9773.49219 0.111361
9774.29980 0.111439
9775.10840 0.11152
9775.91602 0.111619
9776.72461 0.111719
9777.53320 0.111818
9778.34082 0.111918
9779.14941 0.112017
9779.95801 0.112116
9780.76660 0.112221
9781.57520 0.112326
9782.38379 0.112431
9783.19336 0.112536
9784.00195 0.112642
9784.81055 0.112747
9785.62012 0.112864
9786.42871 0.112984
9787.23828 0.113104
9788.04688 0.113224
9788.85645 0.113344
9789.66602 0.113465
9790.47559 0.113582
9791.28516 0.113696
9792.09473 0.113811
9792.90430 0.113926
9793.71387 0.114041
9794.52344 0.114155
9795.33301 0.11427
9796.14258 0.114385
9796.95312 0.114499
9797.76270 0.114614
9798.57324 0.114729
9799.38281 0.114843
9800.19336 0.114957
9801.00391 0.115068
9801.81348 0.115179
9802.62402 0.11529
9803.43457 0.115401
9804.24512 0.115513
9805.05566 0.115622
9805.86621 0.115711
9806.67773 0.1158
9807.48828 0.115889
9808.29883 0.115978
9809.11035 0.116067
9809.92090 0.116156
9810.73242 0.116217
9811.54297 0.116274
9812.35352 0.116332
9813.16602 0.11639
9813.97754 0.116447
9814.78809 0.116505
9815.59961 0.116552
9816.41113 0.116595
9817.22363 0.116638
9818.03516 0.116681
9818.84668 0.116724
9819.65820 0.116767
9820.47070 0.11678
9821.28223 0.116771
9822.09473 0.116763
9822.90625 0.116754
9823.71875 0.116746
9824.53125 0.116737
9825.34277 0.116724
9826.15527 0.116706
9826.96777 0.116687
9827.78027 0.116669
9828.59277 0.116651
9829.40527 0.116632
9830.21777 0.116605
9831.03125 0.116555
9831.84375 0.116505
9832.65625 0.116455
9833.46973 0.116404
9834.28223 0.116354
9835.09570 0.116301
9835.90918 0.116223
9836.72168 0.116145
9837.53516 0.116067
9838.34863 0.115989
9839.16211 0.115912
9839.97559 0.115834
9840.78906 0.115742
9841.60254 0.115649
9842.41699 0.115557
9843.23047 0.115464
9844.04395 0.115372
9844.85840 0.115279
9845.67188 0.11519
9846.48633 0.1151
9847.29980 0.115011
9848.11426 0.114922
9848.92871 0.114833
9849.74316 0.114743
9850.55762 0.114656
9851.37207 0.11457
9852.18652 0.114483
9853.00098 0.114396
9853.81543 0.11431
9854.62988 0.114223
9855.44531 0.114145
9856.25977 0.114075
9857.07520 0.114004
9857.88965 0.113933
9858.70508 0.113862
9859.51953 0.113791
9860.33496 0.11372
9861.15039 0.113647
9861.96582 0.113574
9862.78125 0.113501
9863.59668 0.113428
9864.41211 0.113355
9865.22754 0.113293
9866.04297 0.11326
9866.85938 0.113227
9867.67480 0.113193
9868.49023 0.11316
9869.30664 0.113127
9870.12207 0.113098
9870.93848 0.113099
9871.75488 0.113099
9872.57129 0.1131
9873.38672 0.1131
9874.20312 0.113101
9875.01953 0.113101
9875.83594 0.113116
9876.65332 0.113131
9877.46973 0.113147
9878.28613 0.113162
9879.10254 0.113177
9879.91992 0.113192
9880.73633 0.113243
9881.55371 0.113298
9882.37012 0.113354
9883.18848 0.113409
9884.00488 0.113465
9884.82227 0.11352
9885.63867 0.113599
9886.45605 0.113685
9887.27344 0.11377
9888.09180 0.113856
9888.90918 0.113942
9889.72656 0.114028
9890.54395 0.114127
9891.36230 0.114234
9892.17969 0.11434
9892.99805 0.114447
9893.81543 0.114553
9894.63379 0.11466
9895.45215 0.11478
9896.26953 0.114912
9897.08789 0.115044
9897.90625 0.115176
9898.72461 0.115307
9899.54297 0.115439
9900.36133 0.115576
9901.17969 0.115719
9901.99902 0.115862
9902.81738 0.116005
9903.63672 0.116149
9904.45508 0.116292
9905.27441 0.116437
9906.09277 0.116587
9906.91211 0.116736
9907.73145 0.116886
9908.54980 0.117036
9909.36914 0.117186
9910.18848 0.117336
9911.00781 0.117486
9911.82715 0.117636
9912.64746 0.117786
9913.46680 0.117937
9914.28613 0.118087
9915.10645 0.118236
9915.92578 0.118376
9916.74609 0.118515
9917.56543 0.118655
9918.38574 0.118795
9919.20605 0.118935
9920.02539 0.119075
9920.84570 0.119198
9921.66602 0.119321
9922.48633 0.119444
9923.30664 0.119567
9924.12695 0.11969
9924.94824 0.119813
9925.76855 0.119924
9926.58887 0.120035
9927.41016 0.120145
9928.23047 0.120256
9929.05176 0.120366
9929.87207 0.120477
9930.69336 0.120568
9931.51465 0.120657
9932.33594 0.120745
9933.15723 0.120833
9933.97852 0.120922
9934.79980 0.12101
9935.62109 0.121069
9936.44238 0.121118
9937.26367 0.121167
9938.08496 0.121216
9938.90723 0.121265
9939.72852 0.121315
9940.55078 0.121355
9941.37207 0.121391
9942.19434 0.121428
9943.01660 0.121464
9943.83887 0.121501
9944.66113 0.121537
9945.48340 0.121558
9946.30566 0.121567
9947.12793 0.121576
9947.95020 0.121585
9948.77246 0.121594
9949.59473 0.121603
9950.41797 0.121605
9951.24023 0.1216
9952.06348 0.121595
9952.88574 0.12159
9953.70898 0.121585
9954.53223 0.12158
9955.35352 0.121573
9956.17773 0.121562
9957.00098 0.121552
9957.82422 0.121541
9958.64746 0.12153
9959.47070 0.12152
9960.29492 0.121505
9961.11816 0.121483
9961.94141 0.121461
9962.76562 0.121439
9963.58887 0.121417
9964.41309 0.121395
9965.23633 0.121371
9966.06055 0.121342
9966.88477 0.121312
9967.70898 0.121283
9968.53320 0.121254
9969.35645 0.121225
9970.18164 0.121201
9971.00586 0.121195
9971.83008 0.121189
9972.65430 0.121183
9973.47852 0.121177
9974.30371 0.121172
9975.12793 0.121166
9975.95312 0.121161
9976.77734 0.121156
9977.60254 0.121152
9978.42773 0.121147
9979.25293 0.121142
9980.07812 0.121138
9980.90234 0.121146
9981.72754 0.121153
9982.55371 0.12116
9983.37891 0.121168
9984.20410 0.121175
9985.02930 0.121183
9985.85547 0.121212
9986.68066 0.121241
9987.50684 0.12127
9988.33203 0.121299
9989.15820 0.121327
9989.98438 0.121356
9990.80957 0.121394
9991.63574 0.121431
9992.46191 0.121469
9993.28809 0.121507
9994.11426 0.121545
9994.94043 0.121583
9995.76758 0.121646
9996.59375 0.12171
9997.41992 0.121775
9998.24707 0.12184
9999.07324 0.121905
9999.90039 0.12197
10000.73047 0.122023
10001.54980 0.122074
10002.37988 0.122126
10003.20996 0.122177
10004.04004 0.122228
10004.86035 0.122279
10005.69043 0.122332
10006.51953 0.122385
10007.33984 0.122438
10008.16992 0.122491
10009.00000 0.122544
10009.83008 0.122596
10010.65039 0.122655
10011.48047 0.122716
10012.30957 0.122776
10013.13965 0.122837
10013.95996 0.122898
10014.79004 0.122958
10015.62012 0.123019
10016.45020 0.123079
10017.28027 0.123139
10018.11035 0.123199
10018.92969 0.12326
10019.75977 0.12332
10020.58984 0.123374
10021.41992 0.123425
10022.25000 0.123476
10023.08008 0.123527
10023.90039 0.123578
10024.73047 0.123629
10025.55957 0.123682
10026.38965 0.123734
10027.21973 0.123787
10028.04980 0.123839
10028.87988 0.123892
10029.70996 0.123945
10030.54004 0.123976
10031.37012 0.123996
10032.20020 0.124016
10033.03027 0.124036
10033.84961 0.124057
10034.67969 0.124077
10035.50977 0.1241
10036.33984 0.124125
10037.16992 0.12415
10038.00000 0.124176
10038.83008 0.124201
10039.66016 0.124226
10040.49023 0.124239
10041.32031 0.124242
10042.15039 0.124245
10042.98047 0.124249
10043.80957 0.124252
10044.63965 0.124255
10045.46973 0.12425
10046.30957 0.124239
10047.13965 0.124227
10047.96973 0.124216
10048.79980 0.124204
10049.62988 0.124193
10050.45996 0.124178
10051.29004 0.124161
10052.12012 0.124145
10052.95020 0.124128
10053.78027 0.124111
10054.62012 0.124094
10055.45020 0.12407
10056.28027 0.124039
10057.11035 0.124008
10057.94043 0.123978
10058.76953 0.123947
10059.59961 0.123916
10060.44043 0.123882
10061.26953 0.123843
10062.09961 0.123805
10062.92969 0.123766
10063.75977 0.123728
10064.58984 0.123689
10065.42969 0.123658
10066.25977 0.123634
10067.08984 0.12361
10067.91992 0.123586
10068.75977 0.123562
10069.58984 0.123537
10070.41992 0.123514
10071.25000 0.123492
10072.08984 0.12347
10072.91992 0.123449
10073.75000 0.123427
10074.58008 0.123405
10075.41992 0.123385
10076.25000 0.123369
10077.08008 0.123352
10077.91992 0.123336
10078.75000 0.123319
10079.58008 0.123302
10080.41992 0.123292
10081.25000 0.123288
10082.08008 0.123284
10082.91992 0.123279
10083.75000 0.123275
10084.58984 0.123271
10085.41992 0.123273
10086.25000 0.123281
10087.08984 0.123289
10087.91992 0.123297
10088.75000 0.123305
10089.58984 0.123313
10090.41992 0.123319
10091.25977 0.123325
10092.08984 0.123331
10092.92969 0.123337
10093.75977 0.123343
10094.59961 0.123349
10095.42969 0.123366
10096.25977 0.123394
10097.09961 0.123422
10097.92969 0.123449
10098.76953 0.123477
10099.59961 0.123505
10100.44043 0.123528
10101.26953 0.123546
10102.11035 0.123564
10102.94043 0.123582
10103.78027 0.1236
10104.62012 0.123618
10105.45020 0.123641
10106.29004 0.123669
10107.12012 0.123696
10107.95996 0.123724
10108.79004 0.123752
10109.62988 0.123779
10110.45996 0.123801
10111.29980 0.123819
10112.13965 0.123837
10112.96973 0.123855
10113.80957 0.123873
10114.65039 0.123891
10115.48047 0.123898
10116.32031 0.123897
10117.15039 0.123897
10117.99023 0.123896
10118.83008 0.123896
10119.66016 0.123895
10120.50000 0.123887
10121.33984 0.123874
10122.16992 0.123861
10123.00977 0.123848
10123.84961 0.123835
10124.69043 0.123822
10125.51953 0.123792
10126.36035 0.123754
10127.20020 0.123715
10128.03027 0.123677
10128.87012 0.123638
10129.70996 0.123599
10130.54980 0.123542
10131.37988 0.123475
10132.21973 0.123407
10133.05957 0.12334
10133.90039 0.123273
10134.74023 0.123205
10135.57031 0.123121
10136.41016 0.123029
10137.25000 0.122937
10138.08984 0.122845
10138.92969 0.122752
10139.75977 0.12266
10140.59961 0.122554
10141.44043 0.122444
10142.28027 0.122333
10143.12012 0.122222
10143.95996 0.122111
10144.79004 0.122
10145.62988 0.121855
10146.46973 0.121698
10147.30957 0.121542
10148.15039 0.121386
10148.99023 0.121229
10149.83008 0.121073
10150.66992 0.120904
10151.50977 0.120732
10152.34961 0.120559
10153.19043 0.120387
10154.03027 0.120214
10154.86035 0.120042
10155.70020 0.119848
10156.54004 0.119649
10157.37988 0.11945
10158.21973 0.119252
10159.05957 0.119053
10159.90039 0.118854
10160.74023 0.118653
10161.58008 0.118453
10162.41992 0.118252
10163.25977 0.118051
10164.09961 0.117849
10164.94043 0.117649
10165.79004 0.117454
10166.62988 0.11726
10167.46973 0.117066
10168.30957 0.116872
10169.15039 0.116677
10169.99023 0.116483
10170.83008 0.11629
10171.66992 0.116098
10172.50977 0.115905
10173.34961 0.115712
10174.19043 0.115519
10175.03027 0.115327
10175.87988 0.115133
10176.71973 0.114939
10177.55957 0.114744
10178.40039 0.11455
10179.24023 0.114356
10180.08008 0.114164
10180.91992 0.113994
10181.76953 0.113823
10182.61035 0.113653
10183.45020 0.113482
10184.29004 0.113312
10185.12988 0.113142
10185.98047 0.112976
10186.82031 0.112811
10187.66016 0.112645
10188.50000 0.112479
10189.34961 0.112314
10190.19043 0.112159
10191.03027 0.112041
10191.87012 0.111923
10192.71973 0.111805
10193.55957 0.111687
10194.40039 0.111569
10195.24023 0.11146
10196.08984 0.111372
10196.92969 0.111283
10197.76953 0.111195
10198.62012 0.111107
10199.45996 0.111019
10200.29980 0.110939
10201.15039 0.110874
10201.99023 0.110809
10202.83008 0.110744
10203.67969 0.11068
10204.51953 0.110615
10205.36035 0.110565
10206.20996 0.110535
10207.04980 0.110504
10207.90039 0.110474
10208.74023 0.110443
10209.58008 0.110413
10210.42969 0.110397
10211.26953 0.110394
10212.12012 0.110392
10212.95996 0.11039
10213.79980 0.110387
10214.65039 0.110385
10215.49023 0.110396
10216.33984 0.110418
10217.17969 0.11044
10218.03027 0.110462
10218.87012 0.110483
10219.71973 0.110505
10220.55957 0.11054
10221.41016 0.110582
10222.25000 0.110624
10223.09961 0.110666
10223.94043 0.110708
10224.79004 0.11075
10225.62988 0.110803
10226.48047 0.11086
10227.32031 0.110917
10228.16992 0.110974
10229.01953 0.111031
10229.86035 0.111087
10230.70996 0.111147
10231.54980 0.111207
10232.40039 0.111267
10233.25000 0.111326
10234.08984 0.111386
10234.94043 0.111446
10235.78027 0.111512
10236.62988 0.111578
10237.48047 0.111644
10238.32031 0.11171
10239.16992 0.111776
10240.01953 0.111842
10240.86035 0.111908
10241.70996 0.111974
10242.55957 0.11204
10243.40039 0.112105
10244.25000 0.112172
10245.09961 0.112238
10245.94043 0.112304
10246.79004 0.11237
10247.63965 0.112436
10248.49023 0.112502
10249.33008 0.112568
10250.17969 0.112632
10251.03027 0.112687
10251.87012 0.112743
10252.71973 0.112799
10253.57031 0.112854
10254.41992 0.11291
10255.26953 0.112957
10256.11035 0.112984
10256.95996 0.113011
10257.80957 0.113038
10258.66016 0.113065
10259.50977 0.113092
10260.34961 0.113118
10261.20020 0.113141
10262.04980 0.113165
10262.90039 0.113189
10263.75000 0.113213
10264.59961 0.113236
10265.45020 0.113248
10266.29004 0.113249
10267.13965 0.11325
10267.99023 0.113251
10268.83984 0.113253
10269.69043 0.113254
10270.54004 0.113249
10271.38965 0.11324
10272.24023 0.113231
10273.08984 0.113223
10273.94043 0.113214
10274.79004 0.113206
10275.62988 0.113182
10276.48047 0.113154
10277.33008 0.113126
10278.17969 0.113097
10279.03027 0.113069
10279.87988 0.11304
10280.73047 0.113015
10281.58008 0.112989
10282.42969 0.112964
10283.28027 0.112939
10284.12988 0.112913
10284.98047 0.112888
10285.83008 0.112852
10286.69043 0.112816
10287.54004 0.112779
10288.38965 0.112743
10289.24023 0.112707
10290.08984 0.11267
10290.94043 0.112635
10291.79004 0.1126
10292.63965 0.112564
10293.49023 0.112529
10294.33984 0.112493
10295.19043 0.112458
10296.04004 0.112424
10296.90039 0.112391
10297.75000 0.112357
10298.59961 0.112324
10299.45020 0.11229
10300.29980 0.112261
10301.15039 0.11224
10302.00000 0.112219
10302.86035 0.112199
10303.70996 0.112178
10304.55957 0.112157
10305.41016 0.112139
10306.25977 0.112123
10307.12012 0.112107
10307.96973 0.112091
10308.82031 0.112075
10309.66992 0.112059
10310.53027 0.112049
10311.37988 0.112043
10312.23047 0.112036
10313.08008 0.11203
10313.94043 0.112024
10314.79004 0.112017
10315.63965 0.112023
10316.49023 0.112033
10317.34961 0.112044
10318.20020 0.112054
10319.04980 0.112064
10319.91016 0.112074
10320.75977 0.112092
10321.61035 0.112112
10322.46973 0.112132
10323.32031 0.112152
10324.16992 0.112171
10325.03027 0.112192
10325.87988 0.11223
10326.73047 0.112268
10327.58984 0.112306
10328.44043 0.112343
10329.29980 0.112381
10330.15039 0.11242
10331.00000 0.112459
10331.86035 0.112498
10332.70996 0.112537
10333.57031 0.112577
10334.41992 0.112616
10335.28027 0.112665
10336.12988 0.112733
10336.99023 0.112802
10337.83984 0.11287
10338.69043 0.112939
10339.54980 0.113007
10340.40039 0.113066
10341.25977 0.113114
10342.11035 0.113163
10342.96973 0.113211
10343.82031 0.113259
10344.67969 0.113307
10345.54004 0.11337
10346.38965 0.113441
10347.25000 0.113513
10348.09961 0.113584
10348.95996 0.113655
10349.80957 0.113726
10350.66992 0.113798
10351.51953 0.113869
10352.37988 0.11394
10353.24023 0.114012
10354.08984 0.114083
10354.95020 0.114154
10355.79980 0.114213
10356.66016 0.11427
10357.51953 0.114328
10358.37012 0.114386
10359.23047 0.114444
10360.08984 0.114503
10360.94043 0.114581
10361.79980 0.114658
10362.66016 0.114736
10363.50977 0.114813
10364.37012 0.11489
10365.23047 0.114962
10366.08008 0.115019
10366.94043 0.115076
10367.79980 0.115132
10368.65039 0.115189
10369.50977 0.115246
10370.37012 0.115305
10371.23047 0.115367
10372.08008 0.115429
10372.94043 0.115491
10373.79980 0.115553
10374.66016 0.115615
10375.50977 0.115685
10376.37012 0.115761
10377.23047 0.115837
10378.08984 0.115913
10378.95020 0.115989
10379.79980 0.116065
10380.66016 0.116126
10381.51953 0.116182
10382.37988 0.116239
10383.24023 0.116295
10384.09961 0.116352
10384.95996 0.116409
10385.80957 0.116486
10386.66992 0.116564
10387.53027 0.116642
10388.38965 0.11672
10389.25000 0.116799
10390.11035 0.116876
10390.96973 0.11695
10391.83008 0.117023
10392.67969 0.117097
10393.54004 0.11717
10394.40039 0.117243
10395.25977 0.117319
10396.12012 0.117402
10396.98047 0.117485
10397.83984 0.117567
10398.70020 0.11765
10399.55957 0.117732
10400.41992 0.117817
10401.28027 0.117904
10402.13965 0.117991
10403.00000 0.118078
10403.86035 0.118165
10404.71973 0.118252
10405.58008 0.118361
10406.44043 0.118481
10407.29980 0.1186
10408.16016 0.11872
10409.01953 0.11884
10409.87988 0.118959
10410.74023 0.119071
10411.61035 0.119181
10412.46973 0.119291
10413.33008 0.119401
10414.19043 0.119511
10415.04980 0.119622
10415.91016 0.119751
10416.76953 0.119881
10417.62988 0.12001
10418.49023 0.120139
10419.36035 0.120268
10420.21973 0.120399
10421.08008 0.120535
10421.94043 0.120671
10422.79980 0.120808
10423.66016 0.120944
10424.53027 0.12108
10425.38965 0.121212
10426.25000 0.121339
10427.11035 0.121466
10427.96973 0.121592
10428.83008 0.121719
10429.70020 0.121845
10430.55957 0.121974
10431.41992 0.122104
10432.29004 0.122234
10433.15039 0.122364
10434.00977 0.122494
10434.87012 0.122624
10435.74023 0.122755
10436.59961 0.122887
10437.45996 0.123019
10438.32031 0.12315
10439.19043 0.123282
10440.04980 0.123412
10440.91016 0.123509
10441.78027 0.123607
10442.63965 0.123705
10443.50000 0.123803
10444.37012 0.123901
10445.23047 0.123991
10446.08984 0.12406
10446.95996 0.124128
10447.82031 0.124197
10448.69043 0.124265
10449.54980 0.124334
10450.41016 0.12438
10451.28027 0.124401
10452.13965 0.124422
10453.00000 0.124443
10453.87012 0.124464
10454.73047 0.124485
10455.59961 0.124473
10456.45996 0.124447
10457.33008 0.12442
10458.19043 0.124393
10459.05957 0.124367
10459.91992 0.12434
10460.79004 0.124266
10461.65039 0.124186
10462.51953 0.124107
10463.37988 0.124028
10464.25000 0.123948
10465.11035 0.12386
10465.98047 0.123715
10466.83984 0.123569
10467.70996 0.123424
10468.57031 0.123278
10469.44043 0.123133
10470.29980 0.122961
10471.16992 0.122743
10472.04004 0.122524
10472.90039 0.122306
10473.76953 0.122087
10474.62988 0.121869
10475.50000 0.121616
10476.37012 0.121339
10477.23047 0.121062
10478.09961 0.120785
10478.95996 0.120508
10479.83008 0.120231
10480.70020 0.119923
10481.55957 0.119608
10482.42969 0.119293
10483.29980 0.118978
10484.16016 0.118663
10485.03027 0.118346
10485.90039 0.117964
10486.75977 0.117583
10487.62988 0.117202
10488.50000 0.116821
10489.37012 0.116439
10490.23047 0.116056
10491.09961 0.115667
10491.96973 0.115277
10492.83008 0.114888
10493.70020 0.114499
10494.57031 0.11411
10495.44043 0.113697
10496.30957 0.113259
10497.16992 0.112823
10498.04004 0.112386
10498.91016 0.111949
10499.78027 0.111511
10500.65039 0.111054
10501.50977 0.11059
10502.37988 0.110126
10503.25000 0.109661
10504.12012 0.109197
10504.99023 0.108732
10505.86035 0.108266
10506.71973 0.107799
10507.58984 0.107332
10508.45996 0.106865
10509.33008 0.106398
10510.20020 0.105947
10511.07031 0.105548
10511.94043 0.10515
10512.80957 0.104751
10513.67969 0.104352
10514.54004 0.103954
10515.41016 0.103558
10516.28027 0.103166
10517.15039 0.102774
10518.01953 0.102382
10518.88965 0.10199
10519.75977 0.101598
10520.62988 0.10123
10521.50000 0.100871
10522.37012 0.100511
10523.24023 0.100153
10524.11035 0.099793
10524.98047 0.099434
10525.84961 0.099097
10526.71973 0.098761
10527.58984 0.098425
10528.45996 0.098088
10529.33008 0.097751
10530.20020 0.097426
10531.07031 0.097138
10531.95020 0.096849
10532.82031 0.09656
10533.69043 0.096272
10534.55957 0.095983
10535.42969 0.09572
10536.29980 0.095484
10537.16992 0.095248
10538.04004 0.095012
10538.91016 0.094776
10539.79004 0.09454
10540.66016 0.094353
10541.53027 0.094183
10542.40039 0.094013
10543.26953 0.093843
10544.13965 0.093673
10545.00977 0.093504
10545.88965 0.093393
10546.75977 0.093283
10547.62988 0.093173
10548.50000 0.093063
10549.37988 0.092953
10550.25000 0.092855
10551.12012 0.092786
10551.99023 0.092718
10552.86035 0.09265
10553.74023 0.092582
10554.61035 0.092514
10555.48047 0.092476
10556.34961 0.092462
10557.23047 0.092449
10558.09961 0.092435
10558.96973 0.092422
10559.84961 0.092408
10560.71973 0.092446
10561.58984 0.092495
10562.46973 0.092543
10563.33984 0.092592
10564.20996 0.092641
10565.08984 0.092693
10565.95996 0.092781
10566.83008 0.092868
10567.70996 0.092955
10568.58008 0.093043
10569.45020 0.09313
10570.33008 0.093236
10571.20020 0.093373
10572.08008 0.09351
10572.95020 0.093648
10573.82031 0.093785
10574.70020 0.093922
10575.57031 0.094085
10576.45020 0.094263
10577.32031 0.09444
10578.20020 0.094618
10579.07031 0.094795
10579.95020 0.094973
10580.82031 0.095186
10581.69043 0.095401
10582.57031 0.095616
10583.44043 0.095831
10584.32031 0.096047
10585.19043 0.096268
10586.07031 0.096512
10586.95020 0.096754
10587.82031 0.096997
10588.70020 0.097241
10589.57031 0.097484
10590.45020 0.097741
10591.32031 0.098013
10592.20020 0.098284
10593.07031 0.098556
10593.95020 0.098828
10594.83008 0.0991
10595.70020 0.099402
10596.58008 0.099712
10597.45020 0.100022
10598.33008 0.100332
10599.20996 0.100642
10600.08008 0.10095
10600.95996 0.101245
10601.83984 0.10154
10602.70996 0.101835
10603.58984 0.10213
10604.46973 0.102425
10605.33984 0.102717
10606.21973 0.103007
10607.09961 0.103296
10607.96973 0.103585
10608.84961 0.103875
10609.73047 0.104164
10610.59961 0.104458
10611.48047 0.104753
10612.36035 0.105048
10613.24023 0.105343
10614.11035 0.105638
10614.99023 0.105933
10615.87012 0.106213
10616.75000 0.106493
10617.62988 0.106772
10618.50000 0.107052
10619.37988 0.107331
10620.25977 0.107603
10621.13965 0.107856
10622.00977 0.108109
10622.88965 0.108362
10623.76953 0.108616
10624.65039 0.108869
10625.53027 0.109128
10626.41016 0.109391
10627.29004 0.109654
10628.16016 0.109917
10629.04004 0.110179
10629.91992 0.110442
10630.79980 0.110684
10631.67969 0.110923
10632.55957 0.111162
10633.44043 0.111402
10634.32031 0.111641
10635.20020 0.111867
10636.08008 0.112046
10636.95020 0.112225
10637.83008 0.112404
10638.70996 0.112583
10639.58984 0.112762
10640.46973 0.112926
10641.34961 0.113078
10642.23047 0.113231
10643.11035 0.113383
10643.99023 0.113535
10644.87012 0.113688
10645.75000 0.113811
10646.62988 0.113931
10647.50977 0.114049
10648.38965 0.114169
10649.26953 0.114288
10650.15039 0.1144
10651.03027 0.114478
10651.91992 0.114558
10652.79980 0.114637
10653.67969 0.114715
10654.55957 0.114794
10655.44043 0.114856
10656.32031 0.114901
10657.20020 0.114945
10658.08008 0.114989
10658.95996 0.115034
10659.83984 0.115079
10660.73047 0.115085
10661.61035 0.115084
10662.49023 0.115082
10663.37012 0.115081
10664.25000 0.11508
10665.12988 0.115071
10666.00977 0.115024
10666.90039 0.114976
10667.78027 0.114929
10668.66016 0.114881
10669.54004 0.114833
10670.41992 0.11477
10671.30957 0.114691
10672.19043 0.114611
10673.07031 0.114532
10673.95020 0.114452
10674.83984 0.114373
10675.71973 0.114252
10676.59961 0.114122
10677.48047 0.113993
10678.37012 0.113863
10679.25000 0.113733
10680.12988 0.113596
10681.01953 0.11342
10681.90039 0.113244
10682.78027 0.113067
10683.66992 0.112891
10684.54980 0.112715
10685.42969 0.112521
10686.32031 0.112308
10687.20020 0.112095
10688.08008 0.111883
10688.96973 0.11167
10689.84961 0.111457
10690.73047 0.111193
10691.62012 0.110918
10692.50000 0.110643
10693.38965 0.110369
10694.26953 0.110094
10695.16016 0.109814
10696.04004 0.109505
10696.91992 0.109197
10697.80957 0.108889
10698.69043 0.10858
10699.58008 0.108272
10700.45996 0.107954
10701.34961 0.107629
10702.23047 0.107304
10703.12012 0.106978
10704.00000 0.106653
10704.88965 0.106328
10705.76953 0.105978
10706.66016 0.105624
10707.54004 0.10527
10708.42969 0.104916
10709.30957 0.104562
10710.20020 0.104206
10711.08008 0.103837
10711.96973 0.103469
10712.84961 0.1031
10713.74023 0.102732
10714.62988 0.102363
10715.50977 0.101961
10716.40039 0.101534
10717.28027 0.101108
10718.16992 0.10068
10719.05957 0.100253
10719.94043 0.099826
10720.83008 0.099393
10721.70996 0.09896
10722.59961 0.098526
10723.49023 0.098093
10724.37012 0.09766
10725.25977 0.097227
10726.15039 0.096796
10727.04004 0.096364
10727.91992 0.095933
10728.80957 0.095502
10729.70020 0.095071
10730.58008 0.094648
10731.46973 0.094229
10732.36035 0.09381
10733.25000 0.093392
10734.12988 0.092973
10735.01953 0.092555
10735.91016 0.092153
10736.79004 0.091752
10737.67969 0.09135
10738.57031 0.090949
10739.45996 0.090547
10740.34961 0.090148
10741.23047 0.089752
10742.12012 0.089357
10743.00977 0.088961
10743.90039 0.088565
10744.79004 0.088169
10745.66992 0.087798
10746.55957 0.087434
10747.45020 0.087069
10748.33984 0.086705
10749.23047 0.086341
10750.12012 0.085978
10751.00977 0.085624
10751.90039 0.085271
10752.79004 0.084917
10753.66992 0.084563
10754.55957 0.084209
10755.45020 0.08387
10756.33984 0.083544
10757.23047 0.083219
10758.12012 0.082893
10759.00977 0.082568
10759.90039 0.082242
10760.79004 0.081985
10761.67969 0.081736
10762.57031 0.081488
10763.45996 0.081239
10764.34961 0.08099
10765.24023 0.080751
10766.12988 0.080538
10767.01953 0.080325
10767.91016 0.080112
10768.79980 0.079899
10769.69043 0.079686
10770.58008 0.079495
10771.46973 0.079316
10772.36035 0.079137
10773.25000 0.078958
10774.13965 0.078778
10775.03027 0.078601
10775.91992 0.078475
10776.80957 0.078349
10777.70996 0.078222
10778.59961 0.078096
10779.49023 0.07797
10780.37988 0.077864
10781.26953 0.077786
10782.16016 0.077708
10783.04980 0.077631
10783.95020 0.077553
10784.83984 0.077475
10785.73047 0.077441
10786.62012 0.077417
10787.50977 0.077393
10788.40039 0.077369
10789.29980 0.077344
10790.19043 0.077331
10791.08008 0.077361
10791.96973 0.07739
10792.86035 0.077419
10793.75977 0.077448
10794.65039 0.077477
10795.54004 0.077537
10796.42969 0.077616
10797.33008 0.077696
10798.21973 0.077776
10799.11035 0.077856
10800.00000 0.077936
10800.90039 0.07806
10801.79004 0.078184
10802.67969 0.078309
10803.58008 0.078433
10804.46973 0.078558
10805.36035 0.078706
10806.25977 0.078889
10807.15039 0.079072
10808.04004 0.079255
10808.94043 0.079437
10809.83008 0.079621
10810.73047 0.079847
10811.62012 0.080083
10812.50977 0.080319
10813.41016 0.080555
10814.29980 0.080791
10815.20020 0.081039
10816.08984 0.081328
10816.98047 0.081616
10817.87988 0.081905
10818.76953 0.082194
10819.66992 0.082482
10820.55957 0.082804
10821.45996 0.083146
10822.34961 0.083487
10823.25000 0.083829
10824.13965 0.084171
10825.04004 0.084513
10825.92969 0.084886
10826.83008 0.085258
10827.71973 0.08563
10828.62012 0.086002
10829.50977 0.086374
10830.41016 0.086759
10831.29980 0.087159
10832.20020 0.087559
10833.08984 0.08796
10833.99023 0.08836
10834.87988 0.088761
10835.78027 0.089211
10836.67969 0.08967
10837.57031 0.090128
10838.46973 0.090587
10839.36035 0.091045
10840.25977 0.09151
10841.16016 0.091992
10842.04980 0.092474
10842.95020 0.092956
10843.84961 0.093438
10844.74023 0.09392
10845.63965 0.094426
10846.54004 0.094942
10847.42969 0.095458
10848.33008 0.095974
10849.23047 0.096489
10850.12012 0.09701
10851.01953 0.097555
10851.91992 0.098101
10852.82031 0.098647
10853.70996 0.099193
10854.61035 0.099739
10855.50977 0.100272
10856.41016 0.100796
10857.29980 0.101319
10858.20020 0.101843
10859.09961 0.102366
10860.00000 0.10289
10860.88965 0.103409
10861.79004 0.103928
10862.69043 0.104447
10863.58984 0.104967
10864.49023 0.105487
10865.37988 0.105999
10866.28027 0.106504
10867.17969 0.107009
10868.08008 0.107514
10868.98047 0.108019
10869.87988 0.108524
10870.78027 0.109031
10871.66992 0.109538
10872.57031 0.110046
10873.46973 0.110553
10874.37012 0.111061
10875.26953 0.111557
10876.16992 0.112028
10877.07031 0.112499
10877.96973 0.112971
10878.87012 0.113442
10879.76953 0.113914
10880.66992 0.114374
10881.57031 0.114831
10882.46973 0.115288
10883.37012 0.115745
10884.25977 0.116201
10885.16992 0.116649
10886.07031 0.117053
10886.95996 0.117456
10887.87012 0.11786
10888.76953 0.118263
10889.66992 0.118667
10890.57031 0.119039
10891.46973 0.119392
10892.37012 0.119745
10893.26953 0.120097
10894.16992 0.12045
10895.07031 0.120801
10895.96973 0.12111
10896.87012 0.12142
10897.76953 0.12173
10898.66992 0.122041
10899.57031 0.122351
10900.46973 0.12264
10901.37988 0.12291
10902.28027 0.12318
10903.17969 0.123451
10904.08008 0.123721
10904.98047 0.123991
10905.87988 0.124227
10906.79004 0.124461
10907.69043 0.124696
10908.58984 0.12493
10909.49023 0.125165
10910.38965 0.125384
10911.29004 0.125581
10912.20020 0.125778
10913.09961 0.125976
10914.00000 0.126173
10914.90039 0.126371
10915.80957 0.126522
10916.70996 0.126666
10917.61035 0.126811
10918.50977 0.126956
10919.41992 0.127101
10920.32031 0.127236
10921.21973 0.127352
10922.12988 0.127469
10923.03027 0.127585
10923.92969 0.127701
10924.83008 0.127818
10925.74023 0.127887
10926.63965 0.127947
10927.54004 0.128006
10928.45020 0.128065
10929.34961 0.128125
10930.25000 0.128176
10931.16016 0.128208
10932.05957 0.12824
10932.96973 0.128272
10933.87012 0.128304
10934.76953 0.128336
10935.67969 0.128347
10936.58008 0.128351
10937.49023 0.128355
10938.38965 0.128359
10939.29980 0.128363
10940.20020 0.128357
10941.09961 0.128314
10942.00977 0.128271
10942.91016 0.128227
10943.82031 0.128185
10944.71973 0.128141
10945.62988 0.128066
10946.53027 0.127977
10947.44043 0.127887
10948.33984 0.127798
10949.25000 0.127708
10950.15039 0.127616
10951.05957 0.127509
10951.95996 0.127402
10952.87012 0.127296
10953.78027 0.127189
10954.67969 0.127082
10955.58984 0.126942
10956.49023 0.126783
10957.40039 0.126625
10958.29980 0.126466
10959.20996 0.126308
10960.12012 0.126147
10961.01953 0.125972
10961.92969 0.125798
10962.83984 0.125623
10963.74023 0.125448
10964.65039 0.125274
10965.55957 0.125075
10966.45996 0.124861
10967.37012 0.124647
10968.28027 0.124433
10969.17969 0.124218
10970.08984 0.124
10971.00000 0.123736
10971.90039 0.123473
10972.80957 0.123209
10973.71973 0.122946
10974.62988 0.122682
10975.53027 0.122405
10976.44043 0.122118
10977.34961 0.12183
10978.25000 0.121543
10979.16016 0.121255
10980.07031 0.120967
10980.98047 0.120664
10981.88965 0.120362
10982.79004 0.120059
10983.70020 0.119757
10984.61035 0.119454
10985.51953 0.119153
10986.42969 0.118855
10987.33008 0.118556
10988.24023 0.118257
10989.15039 0.117958
10990.05957 0.117657
10990.96973 0.117328
10991.87988 0.116999
10992.79004 0.11667
10993.70020 0.116341
10994.59961 0.116012
10995.50977 0.115687
10996.41992 0.115364
10997.33008 0.115041
10998.24023 0.114718
10999.15039 0.114395
11000.05957 0.114073
11000.96973 0.113761
11001.87988 0.11345
11002.79004 0.113138
11003.70020 0.112827
11004.61035 0.112515
11005.51953 0.112205
11006.42969 0.111896
11007.33984 0.111588
11008.25000 0.111279
11009.16016 0.11097
11010.07031 0.110662
11010.98047 0.110379
11011.88965 0.110096
11012.79980 0.109812
11013.70996 0.109528
11014.62012 0.109244
11015.53027 0.108985
11016.44043 0.108742
11017.34961 0.108499
11018.25977 0.108256
11019.16992 0.108013
11020.08984 0.107773
11021.00000 0.107569
11021.91016 0.107366
11022.82031 0.107162
11023.73047 0.106958
11024.63965 0.106754
11025.54980 0.106567
11026.46973 0.106392
11027.37988 0.106216
11028.29004 0.106041
11029.20020 0.105865
11030.11035 0.105695
11031.01953 0.105559
11031.94043 0.105423
11032.84961 0.105287
11033.75977 0.105152
11034.66992 0.105016
11035.58984 0.104907
11036.50000 0.104813
11037.41016 0.104719
11038.32031 0.104625
11039.24023 0.104531
11040.15039 0.104448
11041.05957 0.104416
11041.96973 0.104384
11042.88965 0.104352
11043.79980 0.10432
11044.70996 0.104289
11045.62988 0.104282
11046.54004 0.104286
11047.45020 0.104291
11048.37012 0.104296
11049.28027 0.1043
11050.19043 0.104318
11051.11035 0.104387
11052.01953 0.104456
11052.92969 0.104525
11053.84961 0.104593
11054.75977 0.104662
11055.67969 0.104773
11056.58984 0.104898
11057.50000 0.105023
11058.41992 0.105148
11059.33008 0.105273
11060.25000 0.105408
11061.16016 0.105572
11062.08008 0.105736
11062.99023 0.1059
11063.91016 0.106065
11064.82031 0.106229
11065.74023 0.106439
11066.65039 0.106661
11067.57031 0.106883
11068.48047 0.107105
11069.40039 0.107327
11070.30957 0.107563
11071.23047 0.107825
11072.13965 0.108087
11073.05957 0.10835
11073.96973 0.108612
11074.88965 0.108875
11075.79980 0.109172
11076.71973 0.109475
11077.62988 0.109777
11078.54980 0.11008
11079.46973 0.110383
11080.37988 0.110696
11081.29980 0.111023
11082.20996 0.111351
11083.12988 0.111679
11084.04980 0.112007
11084.95996 0.112334
11085.87988 0.112683
11086.79980 0.113031
11087.70996 0.113381
11088.62988 0.11373
11089.54980 0.114079
11090.45996 0.114431
11091.37988 0.114785
11092.29980 0.115139
11093.21973 0.115493
11094.12988 0.115848
11095.04980 0.116204
11095.96973 0.11659
11096.87988 0.116977
11097.79980 0.117363
11098.71973 0.11775
11099.63965 0.118137
11100.54980 0.118527
11101.46973 0.118921
11102.38965 0.119314
11103.30957 0.119708
11104.23047 0.120102
11105.13965 0.12049
11106.05957 0.120846
11106.98047 0.121202
11107.90039 0.121559
11108.82031 0.121915
11109.74023 0.122272
11110.66016 0.122599
11111.57031 0.122913
11112.49023 0.123228
11113.41016 0.123544
11114.33008 0.123859
11115.25000 0.124169
11116.16992 0.124464
11117.08984 0.12476
11118.00977 0.125055
11118.91992 0.125351
11119.83984 0.125647
11120.75977 0.125903
11121.67969 0.126151
11122.59961 0.126399
11123.51953 0.126647
11124.44043 0.126896
11125.36035 0.127124
11126.28027 0.127322
11127.20020 0.127519
11128.12012 0.127716
11129.04004 0.127914
11129.95996 0.128111
11130.87988 0.128269
11131.79980 0.128426
11132.71973 0.128582
11133.63965 0.128739
11134.55957 0.128895
11135.48047 0.129024
11136.41016 0.129128
11137.33008 0.129231
11138.25000 0.129335
11139.16992 0.129439
11140.08984 0.129538
11141.00977 0.129588
11141.92969 0.129639
11142.84961 0.12969
11143.76953 0.129741
11144.69043 0.129791
11145.62012 0.129808
11146.54004 0.129807
11147.45996 0.129806
11148.37988 0.129805
11149.29980 0.129804
11150.21973 0.129795
11151.15039 0.12976
11152.07031 0.129725
11152.99023 0.129691
11153.91016 0.129656
11154.83008 0.129621
11155.75977 0.12956
11156.67969 0.129493
11157.59961 0.129426
11158.51953 0.129359
11159.45020 0.129292
11160.37012 0.129222
11161.29004 0.129149
11162.20996 0.129076
11163.13965 0.129002
11164.05957 0.128929
11164.98047 0.128856
11165.91016 0.128743
11166.83008 0.12863
11167.75000 0.128517
11168.67969 0.128404
11169.59961 0.128291
11170.51953 0.128185
11171.45020 0.128084
11172.37012 0.127982
11173.29004 0.127881
11174.21973 0.12778
11175.13965 0.12768
11176.07031 0.127586
11176.99023 0.127492
11177.91016 0.127398
11178.83984 0.127304
11179.75977 0.12721
11180.69043 0.127121
11181.61035 0.127034
11182.54004 0.126946
11183.45996 0.126858
11184.38965 0.126771
11185.30957 0.126691
11186.23047 0.126629
11187.16016 0.126567
11188.08008 0.126504
11189.00977 0.126442
11189.92969 0.12638
11190.86035 0.126332
11191.79004 0.126286
11192.70996 0.126239
11193.63965 0.126193
11194.55957 0.126146
11195.49023 0.126109
11196.41016 0.126082
11197.33984 0.126054
11198.25977 0.126027
11199.19043 0.125999
11200.12012 0.125975
11201.04004 0.12598
11201.96973 0.125984
11202.88965 0.125989
11203.82031 0.125993
11204.75000 0.125998
11205.66992 0.126014
11206.59961 0.126035
11207.53027 0.126057
11208.45020 0.126078
11209.37988 0.126099
11210.30957 0.126126
11211.23047 0.126166
11212.16016 0.126205
11213.08984 0.126244
11214.00977 0.126283
11214.94043 0.126323
11215.87012 0.126385
11216.79980 0.126447
11217.71973 0.12651
11218.65039 0.126574
11219.58008 0.126637
11220.50977 0.126703
11221.42969 0.126773
11222.36035 0.126843
11223.29004 0.126912
11224.21973 0.126982
11225.15039 0.127054
11226.07031 0.12714
11227.00000 0.127225
11227.92969 0.127311
11228.86035 0.127397
11229.79004 0.127482
11230.70996 0.127569
11231.63965 0.127656
11232.57031 0.127744
11233.50000 0.127831
11234.42969 0.127918
11235.36035 0.128
11236.29004 0.128074
11237.21973 0.128148
11238.15039 0.128222
11239.08008 0.128297
11240.00000 0.128371
11240.92969 0.128436
11241.86035 0.128501
11242.79004 0.128566
11243.71973 0.128631
11244.65039 0.128696
11245.58008 0.128753
11246.50977 0.128804
11247.44043 0.128856
11248.37012 0.128907
11249.29980 0.128958
11250.23047 0.129005
11251.16016 0.129039
11252.08984 0.129072
11253.01953 0.129106
11253.95020 0.129139
11254.87988 0.129173
11255.80957 0.12919
11256.74023 0.129204
11257.66992 0.129219
11258.61035 0.129233
11259.54004 0.129248
11260.46973 0.129246
11261.40039 0.129228
11262.33008 0.12921
11263.25977 0.129192
11264.19043 0.129174
11265.12012 0.129154
11266.04980 0.129119
11266.99023 0.129085
11267.91992 0.12905
11268.84961 0.129016
11269.78027 0.128981
11270.70996 0.128936
11271.63965 0.128888
11272.58008 0.128839
11273.50977 0.128791
11274.44043 0.128743
11275.37012 0.128685
11276.29980 0.128613
11277.24023 0.12854
11278.16992 0.128468
11279.09961 0.128396
11280.03027 0.128323
11280.96973 0.128238
11281.90039 0.128152
11282.83008 0.128067
11283.76953 0.127982
11284.70020 0.127896
11285.62988 0.127802
11286.55957 0.127703
11287.50000 0.127604
11288.42969 0.127505
11289.36035 0.127406
11290.29980 0.127304
11291.23047 0.127195
11292.16016 0.127086
11293.09961 0.126977
11294.03027 0.126868
11294.96973 0.126759
11295.90039 0.126658
11296.83008 0.126556
11297.76953 0.126455
11298.70020 0.126353
11299.63965 0.126252
11300.57031 0.126153
11301.50000 0.126056
11302.44043 0.125959
11303.37012 0.125862
11304.30957 0.125765
11305.24023 0.12567
11306.17969 0.125583
11307.11035 0.125496
11308.04980 0.125409
11308.98047 0.125322
11309.91992 0.125235
11310.84961 0.125169
11311.79004 0.125104
11312.71973 0.12504
11313.66016 0.124976
11314.58984 0.124912
11315.53027 0.124852
11316.45996 0.124796
11317.40039 0.12474
11318.33008 0.124683
11319.26953 0.124627
11320.20996 0.124577
11321.13965 0.124554
11322.08008 0.12453
11323.00977 0.124506
11323.95020 0.124483
11324.88965 0.124459
11325.82031 0.124443
11326.75977 0.124429
11327.70020 0.124415
11328.62988 0.1244
11329.57031 0.124386
11330.50977 0.124386
11331.44043 0.1244
11332.37988 0.124413
11333.32031 0.124427
11334.25000 0.12444
11335.19043 0.124459
11336.12988 0.124502
11337.07031 0.124544
11338.00000 0.124586
11338.94043 0.124628
11339.87988 0.12467
11340.82031 0.124721
11341.75000 0.124772
11342.69043 0.124824
11343.62988 0.124875
11344.57031 0.124926
11345.50000 0.124989
11346.44043 0.125061
11347.37988 0.125133
11348.32031 0.125205
11349.25977 0.125277
11350.20020 0.12535
11351.12988 0.125429
11352.07031 0.125508
11353.00977 0.125588
11353.95020 0.125667
11354.88965 0.125746
11355.83008 0.125841
11356.76953 0.125939
11357.70996 0.126036
11358.63965 0.126134
11359.58008 0.126232
11360.51953 0.126321
11361.45996 0.126404
11362.40039 0.126486
11363.33984 0.126569
11364.28027 0.126652
11365.21973 0.126737
11366.16016 0.126831
11367.09961 0.126925
11368.04004 0.12702
11368.98047 0.127114
11369.91992 0.127208
11370.86035 0.127276
11371.79980 0.127342
11372.74023 0.127408
11373.67969 0.127473
11374.62012 0.127539
11375.55957 0.127599
11376.50000 0.127655
11377.44043 0.127711
11378.37988 0.127768
11379.32031 0.127824
11380.25977 0.127873
11381.20996 0.127902
11382.15039 0.127931
11383.08984 0.12796
11384.03027 0.127989
11384.96973 0.128019
11385.91016 0.128032
11386.84961 0.128046
11387.79004 0.128059
11388.74023 0.128073
11389.67969 0.128086
11390.62012 0.128079
11391.55957 0.12806
11392.50000 0.128042
11393.44043 0.128024
11394.38965 0.128006
11395.33008 0.127978
11396.26953 0.127933
11397.20996 0.127888
11398.15039 0.127843
11399.09961 0.127798
11400.04004 0.127752
11400.98047 0.127675
11401.91992 0.127598
11402.87012 0.127521
11403.80957 0.127444
11404.75000 0.127367
11405.70020 0.127279
11406.63965 0.127188
11407.58008 0.127096
11408.53027 0.127004
11409.46973 0.126912
11410.41016 0.126807
11411.36035 0.126688
11412.29980 0.126567
11413.24023 0.126447
11414.19043 0.126327
11415.12988 0.126204
11416.07031 0.126058
11417.01953 0.125913
11417.95996 0.125767
11418.91016 0.125621
11419.84961 0.125475
11420.79004 0.125309
11421.74023 0.125138
11422.67969 0.124968
11423.62988 0.124797
11424.57031 0.124627
11425.51953 0.124469
11426.45996 0.124322
11427.41016 0.124175
11428.34961 0.124028
11429.29004 0.123881
11430.24023 0.123731
11431.17969 0.123575
11432.12988 0.123418
11433.08008 0.123262
11434.01953 0.123105
11434.96973 0.122949
11435.91016 0.122798
11436.86035 0.122647
11437.79980 0.122497
11438.75000 0.122346
11439.69043 0.122195
11440.63965 0.122052
11441.58984 0.121913
11442.53027 0.121774
11443.48047 0.121635
11444.41992 0.121496
11445.37012 0.121362
11446.32031 0.121238
11447.25977 0.121114
11448.20996 0.12099
11449.16016 0.120866
11450.09961 0.120744
11451.04980 0.120639
11452.00000 0.120535
11452.94043 0.12043
11453.88965 0.120326
11454.83984 0.120221
11455.78027 0.120146
11456.73047 0.120077
11457.67969 0.120008
11458.62988 0.119939
11459.57031 0.11987
11460.51953 0.119815
11461.46973 0.119772
11462.41992 0.119729
11463.36035 0.119686
11464.30957 0.119643
11465.25977 0.119612
11466.20996 0.119613
11467.15039 0.119613
11468.09961 0.119614
11469.04980 0.119615
11470.00000 0.119615
11470.95020 0.119652
11471.90039 0.119689
11472.83984 0.119726
11473.79004 0.119763
11474.74023 0.1198
11475.69043 0.119859
11476.63965 0.119926
11477.58984 0.119993
11478.54004 0.12006
11479.49023 0.120127
11480.44043 0.120215
11481.37988 0.120328
11482.33008 0.120441
11483.28027 0.120554
11484.23047 0.120667
11485.17969 0.120787
11486.12988 0.120935
11487.08008 0.121083
11488.03027 0.121231
11488.98047 0.121379
11489.92969 0.121528
11490.87988 0.1217
11491.83008 0.121874
11492.78027 0.122048
11493.73047 0.122222
11494.67969 0.122396
11495.62988 0.122586
11496.58008 0.122784
11497.53027 0.122983
11498.48047 0.123181
11499.42969 0.12338
11500.37988 0.123588
11501.33984 0.123811
11502.29004 0.124034
11503.24023 0.124257
11504.19043 0.12448
11505.13965 0.124705
11506.08984 0.124937
11507.04004 0.125169
11507.99023 0.125401
11508.95020 0.125633
11509.90039 0.125865
11510.84961 0.126134
11511.79980 0.126406
11512.75000 0.126678
11513.70020 0.126951
11514.66016 0.127223
11515.61035 0.127488
11516.55957 0.127748
11517.50977 0.128008
11518.45996 0.128268
11519.41992 0.128529
11520.37012 0.128787
11521.32031 0.129044
11522.26953 0.1293
11523.23047 0.129557
11524.17969 0.129813
11525.12988 0.130069
11526.08008 0.130317
11527.04004 0.130564
11527.99023 0.130812
11528.94043 0.13106
11529.90039 0.131308
11530.84961 0.131545
11531.79980 0.131781
11532.75977 0.132016
11533.70996 0.132252
11534.66992 0.132488
11535.62012 0.13271
11536.57031 0.132926
11537.53027 0.133142
11538.48047 0.133357
11539.42969 0.133573
11540.38965 0.133783
11541.33984 0.133985
11542.29980 0.134187
11543.25000 0.134389
11544.20996 0.134591
11545.16016 0.134788
11546.11035 0.134963
11547.07031 0.135138
11548.01953 0.135314
11548.98047 0.135489
11549.92969 0.135664
11550.88965 0.135795
11551.83984 0.135924
11552.79980 0.136052
11553.75000 0.13618
11554.70996 0.136308
11555.66016 0.136422
11556.62012 0.136528
11557.58008 0.136635
11558.53027 0.136741
11559.49023 0.136848
11560.44043 0.136936
11561.40039 0.137003
11562.34961 0.13707
11563.30957 0.137137
11564.26953 0.137204
11565.21973 0.137267
11566.17969 0.137318
11567.12988 0.137369
11568.08984 0.137421
11569.04980 0.137472
11570.00000 0.137523
11570.95996 0.137537
11571.91992 0.13755
11572.87012 0.137564
11573.83008 0.137578
11574.79004 0.137591
11575.74023 0.13759
11576.70020 0.137585
11577.66016 0.137579
11578.62012 0.137574
11579.57031 0.137568
11580.53027 0.137549
11581.49023 0.137518
11582.45020 0.137488
11583.40039 0.137457
11584.36035 0.137427
11585.32031 0.137392
11586.28027 0.137349
11587.23047 0.137306
11588.19043 0.137263
11589.15039 0.137219
11590.11035 0.137176
11591.07031 0.137133
11592.03027 0.13709
11592.98047 0.137047
11593.94043 0.137003
11594.90039 0.13696
11595.86035 0.136908
11596.82031 0.136854
11597.78027 0.136801
11598.74023 0.136747
11599.70020 0.136694
11600.65039 0.136644
11601.61035 0.136596
11602.57031 0.136548
11603.53027 0.1365
11604.49023 0.136452
11605.45020 0.136406
11606.41016 0.136361
11607.37012 0.136316
11608.33008 0.136271
11609.29004 0.136226
11610.25000 0.136185
11611.20996 0.136157
11612.16992 0.136129
11613.12988 0.136101
11614.08984 0.136073
11615.04980 0.136045
11616.00977 0.136022
11616.96973 0.135999
11617.92969 0.135976
11618.88965 0.135953
11619.84961 0.135931
11620.80957 0.135916
11621.76953 0.135904
11622.73047 0.135891
11623.70020 0.135879
11624.66016 0.135866
11625.62012 0.135867
11626.58008 0.135876
11627.54004 0.135885
11628.50000 0.135894
11629.45996 0.135903
11630.41992 0.135914
11631.38965 0.135928
11632.34961 0.135943
11633.30957 0.135957
11634.26953 0.135971
11635.23047 0.13599
11636.20020 0.136022
11637.16016 0.136054
11638.12012 0.136086
11639.08008 0.136118
11640.04004 0.13615
11641.00977 0.136186
11641.96973 0.136222
11642.92969 0.136259
11643.88965 0.136295
11644.86035 0.136331
11645.82031 0.136374
11646.78027 0.136417
11647.75000 0.13646
11648.70996 0.136503
11649.66992 0.136546
11650.62988 0.136597
11651.59961 0.136652
11652.55957 0.136707
11653.51953 0.136761
11654.49023 0.136816
11655.45020 0.136858
11656.41992 0.136884
11657.37988 0.13691
11658.33984 0.136936
11659.30957 0.136962
11660.26953 0.136998
11661.24023 0.137057
11662.20020 0.137117
11663.16016 0.137176
11664.12988 0.137236
11665.08984 0.137293
11666.05957 0.137327
11667.01953 0.13736
11667.99023 0.137394
11668.95020 0.137428
11669.91992 0.137462
11670.87988 0.13749
11671.83984 0.137519
11672.80957 0.137547
11673.78027 0.137575
11674.74023 0.137603
11675.70996 0.137621
11676.66992 0.137634
11677.63965 0.137648
11678.59961 0.137661
11679.57031 0.137674
11680.53027 0.137688
11681.50000 0.137702
11682.45996 0.137715
11683.42969 0.137729
11684.40039 0.137742
11685.36035 0.137742
11686.33008 0.137719
11687.29004 0.137696
11688.25977 0.137673
11689.23047 0.137649
11690.19043 0.137628
11691.16016 0.137612
11692.12988 0.137596
11693.08984 0.13758
11694.05957 0.137564
11695.03027 0.137547
11695.99023 0.137509
11696.95996 0.137471
11697.92969 0.137433
11698.90039 0.137395
11699.86035 0.137356
11700.83008 0.137304
11701.79980 0.137248
11702.76953 0.137193
11703.73047 0.137137
11704.70020 0.137082
11705.66992 0.137025
11706.63965 0.136967
11707.59961 0.136909
11708.57031 0.136852
11709.54004 0.136794
11710.50977 0.13673
11711.48047 0.13666
11712.45020 0.136591
11713.41016 0.136521
11714.37988 0.136451
11715.34961 0.136386
11716.32031 0.136328
11717.29004 0.136269
11718.25977 0.136211
11719.23047 0.136153
11720.19043 0.136093
11721.16016 0.136024
11722.12988 0.135956
11723.09961 0.135888
11724.07031 0.13582
11725.04004 0.135751
11726.00977 0.135689
11726.98047 0.135627
11727.95020 0.135564
11728.91992 0.135502
11729.88965 0.135439
11730.86035 0.135385
11731.83008 0.135332
11732.79980 0.135279
11733.76953 0.135226
11734.74023 0.135173
11735.70996 0.135122
11736.67969 0.135071
11737.65039 0.13502
11738.62012 0.13497
11739.58984 0.134919
11740.55957 0.134881
11741.53027 0.134851
11742.50000 0.134822
11743.46973 0.134793
11744.44043 0.134763
11745.41992 0.134742
11746.38965 0.134731
11747.36035 0.134721
11748.33008 0.134711
11749.29980 0.1347
11750.26953 0.134695
11751.24023 0.134702
11752.20996 0.13471
11753.19043 0.134717
11754.16016 0.134725
11755.12988 0.134734
11756.09961 0.134748
11757.07031 0.134763
11758.04004 0.134777
11759.01953 0.134792
11759.99023 0.134806
11760.95996 0.134842
11761.92969 0.134878
11762.91016 0.134914
11763.87988 0.13495
11764.84961 0.134987
11765.83008 0.135039
11766.79980 0.135094
11767.76953 0.13515
11768.74023 0.135205
11769.71973 0.13526
11770.69043 0.135321
11771.66016 0.135383
11772.63965 0.135445
11773.61035 0.135508
11774.58008 0.13557
11775.55957 0.135642
11776.53027 0.13572
11777.50000 0.135799
11778.48047 0.135877
11779.45020 0.135956
11780.41992 0.136037
11781.40039 0.136123
11782.37012 0.136209
11783.34961 0.136295
11784.32031 0.136381
11785.29980 0.136467
11786.26953 0.136552
11787.25000 0.136637
11788.21973 0.136722
11789.19043 0.136807
11790.16992 0.136892
11791.13965 0.136979
11792.12012 0.137067
11793.08984 0.137154
11794.07031 0.137241
11795.04004 0.137329
11796.01953 0.137408
11796.99023 0.137488
11797.96973 0.137567
11798.95020 0.137647
11799.91992 0.137726
11800.90039 0.137794
11801.87012 0.137861
11802.84961 0.137927
11803.82031 0.137994
11804.79980 0.138061
11805.78027 0.138106
11806.75000 0.138146
11807.73047 0.138186
11808.70020 0.138226
11809.67969 0.138266
11810.66016 0.138289
11811.62988 0.138304
11812.61035 0.138318
11813.58984 0.138333
11814.55957 0.138347
11815.54004 0.138355
11816.51953 0.138356
11817.49023 0.138358
11818.46973 0.13836
11819.45020 0.138362
11820.42969 0.138347
11821.40039 0.13831
11822.37988 0.138272
11823.36035 0.138236
11824.33008 0.138199
11825.30957 0.138151
11826.29004 0.138081
11827.26953 0.138011
11828.25000 0.137941
11829.21973 0.137871
11830.20020 0.137796
11831.17969 0.137701
11832.16016 0.137605
11833.13965 0.13751
11834.12012 0.137414
11835.08984 0.137315
11836.07031 0.137182
11837.04980 0.137049
11838.03027 0.136915
11839.00977 0.136782
11839.99023 0.136649
11840.96973 0.136499
11841.94043 0.13635
11842.91992 0.1362
11843.90039 0.136051
11844.87988 0.135901
11845.86035 0.135727
11846.83984 0.135549
11847.82031 0.135371
11848.79980 0.135193
11849.78027 0.135016
11850.75977 0.134819
11851.74023 0.134617
11852.71973 0.134415
11853.70020 0.134212
11854.67969 0.13401
11855.66016 0.133788
11856.63965 0.133557
11857.62012 0.133325
11858.59961 0.133094
11859.58008 0.132862
11860.55957 0.132628
11861.54004 0.132392
11862.51953 0.132156
11863.50000 0.13192
11864.48047 0.131684
11865.45996 0.131454
11866.45020 0.131231
11867.42969 0.131008
11868.41016 0.130786
11869.38965 0.130563
11870.37012 0.130339
11871.34961 0.130114
11872.33008 0.12989
11873.32031 0.129665
11874.29980 0.12944
11875.28027 0.12922
11876.25977 0.129015
11877.24023 0.128809
11878.21973 0.128603
11879.20996 0.128398
11880.19043 0.128193
11881.16992 0.127993
11882.15039 0.127793
11883.13965 0.127592
11884.12012 0.127392
11885.09961 0.127193
11886.08008 0.127011
11887.07031 0.126829
11888.04980 0.126647
11889.03027 0.126464
11890.01953 0.126282
11891.00000 0.126123
11891.98047 0.125963
11892.95996 0.125804
11893.95020 0.125644
11894.92969 0.125485
11895.91992 0.125359
11896.90039 0.125236
11897.87988 0.125113
11898.87012 0.12499
11899.84961 0.124867
11900.83008 0.124779
11901.82031 0.124697
11902.79980 0.124615
11903.79004 0.124533
11904.76953 0.124451
11905.75000 0.124388
11906.74023 0.124331
11907.71973 0.124275
11908.70996 0.124218
11909.69043 0.124161
11910.67969 0.124134
11911.66016 0.12412
11912.65039 0.124106
11913.62988 0.124091
11914.62012 0.124077
11915.59961 0.12409
11916.58984 0.124119
11917.57031 0.124149
11918.55957 0.124178
11919.54004 0.124208
11920.53027 0.124259
11921.50977 0.12433
11922.50000 0.124401
11923.49023 0.124472
11924.46973 0.124543
11925.45996 0.124638
11926.44043 0.12476
11927.42969 0.124883
11928.41992 0.125005
11929.40039 0.125128
11930.38965 0.12526
11931.37012 0.125408
11932.36035 0.125556
11933.34961 0.125704
11934.33008 0.125852
11935.32031 0.12601
11936.30957 0.126192
11937.29004 0.126372
11938.28027 0.126554
11939.26953 0.126735
11940.25000 0.126926
11941.24023 0.127146
11942.23047 0.127366
11943.21973 0.127586
11944.20996 0.127807
11945.19043 0.128033
11946.17969 0.128287
11947.16992 0.128541
11948.16016 0.128794
11949.13965 0.129048
11950.12988 0.129306
11951.12012 0.129596
11952.11035 0.129886
11953.09961 0.130176
11954.08008 0.130466
11955.07031 0.130757
11956.05957 0.131069
11957.04980 0.131382
11958.04004 0.131694
11959.03027 0.132007
11960.00977 0.13232
11961.00000 0.132655
11961.99023 0.13299
11962.98047 0.133325
11963.96973 0.13366
11964.95996 0.133995
11965.95020 0.134309
11966.94043 0.134622
11967.92969 0.134935
11968.91992 0.135249
11969.91016 0.135562
11970.90039 0.135885
11971.88965 0.136208
11972.87988 0.136532
11973.87012 0.136856
11974.86035 0.13718
11975.84961 0.137505
11976.83984 0.137831
11977.83008 0.138157
11978.82031 0.138483
11979.80957 0.13881
11980.79980 0.139123
11981.79004 0.139435
11982.78027 0.139746
11983.76953 0.140057
11984.75977 0.140368
11985.75000 0.140691
11986.74023 0.141017
11987.73047 0.141343
11988.71973 0.14167
11989.71973 0.141996
11990.70996 0.142283
11991.70020 0.142556
11992.69043 0.142827
11993.67969 0.143099
11994.66992 0.143372
11995.66992 0.143648
11996.66016 0.143925
11997.65039 0.144203
11998.63965 0.144481
11999.62988 0.144759
12000.62988 0.144998
12001.62012 0.145214
12002.61035 0.145431
12003.59961 0.145647
12004.58984 0.145864
12005.58984 0.146054
12006.58008 0.146224
12007.57031 0.146396
12008.57031 0.146567
12009.55957 0.146738
12010.54980 0.146901
12011.54004 0.147059
12012.54004 0.147217
12013.53027 0.147375
12014.51953 0.147532
12015.51953 0.147661
12016.50977 0.147763
12017.50000 0.147865
12018.50000 0.147967
12019.49023 0.148069
12020.48047 0.148161
12021.48047 0.148243
12022.46973 0.148325
12023.46973 0.148407
12024.45996 0.14849
12025.45996 0.148551
12026.45020 0.148586
12027.44043 0.148621
12028.44043 0.148657
12029.42969 0.148692
12030.42969 0.148715
12031.41992 0.148722
12032.41992 0.148729
12033.41016 0.148736
12034.41016 0.148743
12035.40039 0.148744
12036.40039 0.148736
12037.38965 0.148728
12038.38965 0.148721
12039.37988 0.148713
12040.37988 0.148695
12041.37012 0.14866
12042.37012 0.148626
12043.36035 0.148591
12044.36035 0.148556
12045.36035 0.148517
12046.34961 0.148471
12047.34961 0.148424
12048.33984 0.148378
12049.33984 0.148331
12050.33984 0.148279
12051.33008 0.148215
12052.33008 0.148152
12053.33008 0.148088
12054.32031 0.148025
12055.32031 0.147959
12056.32031 0.14789
12057.30957 0.147821
12058.30957 0.147752
12059.30957 0.147682
12060.29980 0.147616
12061.29980 0.147556
12062.29980 0.147496
12063.29004 0.147436
12064.29004 0.147376
12065.29004 0.147317
12066.29004 0.147259
12067.28027 0.147202
12068.28027 0.147145
12069.28027 0.147087
12070.28027 0.147027
12071.28027 0.146959
12072.26953 0.146891
12073.26953 0.146823
12074.26953 0.146755
12075.26953 0.146693
12076.26953 0.146646
12077.26953 0.146599
12078.25977 0.146552
12079.25977 0.146505
12080.25977 0.146461
12081.25977 0.146425
12082.25977 0.146388
12083.25977 0.146351
12084.25977 0.146315
12085.25977 0.146278
12086.25000 0.14624
12087.25000 0.146201
12088.25000 0.146163
12089.25000 0.146124
12090.25000 0.146095
12091.25000 0.146096
12092.25000 0.146097
12093.25000 0.146098
12094.25000 0.146099
12095.25000 0.146094
12096.25000 0.146075
12097.25000 0.146056
12098.25000 0.146037
12099.25000 0.146017
12100.25000 0.146007
12101.25000 0.146021
12102.25000 0.146036
12103.25000 0.146051
12104.25000 0.146066
12105.25977 0.146093
12106.25977 0.146157
12107.25977 0.146221
12108.25977 0.146285
12109.25977 0.146349
12110.25977 0.146389
12111.25977 0.146362
12112.25977 0.146335
12113.25977 0.146309
12114.26953 0.146282
12115.26953 0.146267
12116.26953 0.146284
12117.26953 0.146301
12118.26953 0.146318
12119.28027 0.146335
12120.28027 0.146359
12121.28027 0.1464
12122.28027 0.146442
12123.28027 0.146484
12124.29004 0.146525
12125.29004 0.146562
12126.29004 0.146584
12127.29004 0.146606
12128.29980 0.146628
12129.29980 0.14665
12130.29980 0.146675
12131.29980 0.146705
12132.30957 0.146735
12133.30957 0.146766
12134.30957 0.146796
12135.32031 0.146821
12136.32031 0.146836
12137.32031 0.14685
12138.33008 0.146864
12139.33008 0.146878
12140.33008 0.146893
12141.33984 0.14691
12142.33984 0.146927
12143.34961 0.146944
12144.34961 0.146961
12145.34961 0.146975
12146.36035 0.146982
12147.36035 0.146989
12148.37012 0.146996
12149.37012 0.147003
12150.37988 0.146999
12151.37988 0.146978
12152.38965 0.146957
12153.38965 0.146936
12154.40039 0.146915
12155.40039 0.146902
12156.41016 0.146904
12157.41016 0.146906
12158.41992 0.146907
12159.41992 0.146909
12160.42969 0.146887
12161.42969 0.146832
12162.44043 0.146777
12163.44043 0.146722
12164.45020 0.146668
12165.45020 0.14663
12166.45996 0.146614
12167.46973 0.146598
12168.46973 0.146583
12169.48047 0.146567
12170.48047 0.146542
12171.49023 0.146509
12172.50000 0.146476
12173.50000 0.146442
12174.50977 0.146409
12175.51953 0.146363
12176.51953 0.146307
12177.53027 0.14625
12178.54004 0.146193
12179.54004 0.146136
12180.54980 0.146083
12181.55957 0.146033
12182.55957 0.145983
12183.57031 0.145933
12184.58008 0.145882
12185.58984 0.145828
12186.58984 0.145769
12187.59961 0.145711
12188.61035 0.145653
12189.62012 0.145594
12190.62988 0.145542
12191.62988 0.145494
12192.63965 0.145445
12193.65039 0.145396
12194.66016 0.145348
12195.66992 0.145295
12196.66992 0.14524
12197.67969 0.145185
12198.69043 0.14513
12199.70020 0.145075
12200.70996 0.14502
12201.71973 0.144965
12202.73047 0.144911
12203.73047 0.144856
12204.74023 0.144802
12205.75000 0.144751
12206.75977 0.144702
12207.76953 0.144653
12208.78027 0.144604
12209.79004 0.144555
12210.79980 0.144508
12211.80957 0.144462
12212.82031 0.144417
12213.83008 0.144371
12214.83984 0.144325
12215.84961 0.144295
12216.86035 0.144267
12217.87012 0.144238
12218.87988 0.14421
12219.88965 0.144182
12220.90039 0.144159
12221.91016 0.144136
12222.91992 0.144112
12223.92969 0.144089
12224.94043 0.144066
12225.95020 0.144057
12226.95996 0.144048
12227.96973 0.144039
12228.98047 0.14403
12230.00000 0.144022
12231.00977 0.144004
12232.01953 0.143985
12233.03027 0.143967
12234.04004 0.143949
12235.04980 0.143932
12236.05957 0.143932
12237.08008 0.143933
12238.08984 0.143933
12239.09961 0.143933
12240.11035 0.143935
12241.12012 0.143948
12242.12988 0.143961
12243.15039 0.143974
12244.16016 0.143987
12245.16992 0.144001
12246.17969 0.144014
12247.20020 0.144028
12248.20996 0.144041
12249.21973 0.144055
12250.23047 0.144068
12251.25000 0.144079
12252.25977 0.14409
12253.26953 0.144102
12254.29004 0.144113
12255.29980 0.144124
12256.30957 0.144134
12257.33008 0.144145
12258.33984 0.144156
12259.34961 0.144167
12260.37012 0.144176
12261.37988 0.144181
12262.38965 0.144187
12263.41016 0.144193
12264.41992 0.144199
12265.44043 0.1442
12266.45020 0.144196
12267.45996 0.144191
12268.48047 0.144187
12269.49023 0.144183
12270.50977 0.144173
12271.51953 0.144159
12272.54004 0.144144
12273.54980 0.144129
12274.57031 0.144114
12275.58008 0.144085
12276.59961 0.144045
12277.61035 0.144005
12278.62988 0.143965
12279.63965 0.143925
12280.66016 0.143887
12281.66992 0.143848
12282.69043 0.14381
12283.70020 0.143772
12284.71973 0.143733
12285.73047 0.143672
12286.75000 0.143602
12287.76953 0.143531
12288.78027 0.143461
12289.79980 0.143391
12290.80957 0.143307
12291.83008 0.14322
12292.84961 0.143133
12293.86035 0.143047
12294.87988 0.14296
12295.90039 0.142847
12296.91016 0.142732
12297.92969 0.142616
12298.95020 0.142501
12299.95996 0.142385
12300.98047 0.142255
12302.00000 0.142125
12303.00977 0.141995
12304.03027 0.141865
12305.04980 0.141733
12306.07031 0.141567
12307.08008 0.1414
12308.09961 0.141234
12309.12012 0.141067
12310.13965 0.1409
12311.15039 0.140723
12312.16992 0.140547
12313.19043 0.140371
12314.20996 0.140195
12315.23047 0.140015
12316.24023 0.139823
12317.25977 0.139631
12318.28027 0.139438
12319.29980 0.139246
12320.32031 0.139048
12321.33984 0.138839
12322.36035 0.13863
12323.37012 0.138421
12324.38965 0.138211
12325.41016 0.137996
12326.42969 0.137771
12327.45020 0.137546
12328.46973 0.137322
12329.49023 0.137097
12330.50977 0.136869
12331.53027 0.136638
12332.54980 0.136406
12333.57031 0.136175
12334.58984 0.135944
12335.61035 0.135694
12336.62988 0.135432
12337.65039 0.135169
12338.66992 0.134907
12339.69043 0.134644
12340.70996 0.134404
12341.73047 0.134173
12342.75000 0.133943
12343.76953 0.133712
12344.79004 0.133482
12345.80957 0.133247
12346.83008 0.133012
12347.84961 0.132777
12348.87012 0.132543
12349.88965 0.132307
12350.91016 0.132081
12351.92969 0.131855
12352.95996 0.13163
12353.98047 0.131404
12355.00000 0.131179
12356.01953 0.130962
12357.04004 0.130746
12358.05957 0.130529
12359.08008 0.130312
12360.11035 0.130098
12361.12988 0.129898
12362.15039 0.129698
12363.16992 0.129498
12364.20020 0.129298
12365.21973 0.129098
12366.24023 0.128895
12367.25977 0.128693
12368.29004 0.12849
12369.30957 0.128288
12370.33008 0.128101
12371.34961 0.127947
12372.37988 0.127794
12373.40039 0.12764
12374.41992 0.127487
12375.45020 0.12734
12376.46973 0.127203
12377.49023 0.127067
12378.50977 0.12693
12379.54004 0.126793
12380.55957 0.126673
12381.58008 0.126566
12382.61035 0.126459
12383.62988 0.126353
12384.66016 0.126246
12385.67969 0.126159
12386.70996 0.126081
12387.73047 0.126004
12388.75000 0.125927
12389.78027 0.125849
12390.79980 0.125789
12391.83008 0.125734
12392.84961 0.125678
12393.87012 0.125623
12394.90039 0.125567
12395.91992 0.125542
12396.95020 0.125519
12397.96973 0.125497
12399.00000 0.125475
12400.03027 0.125453
12401.04980 0.12546
12402.08008 0.125468
12403.09961 0.125475
12404.12988 0.125482
12405.15039 0.125495
12406.17969 0.125535
12407.20020 0.125575
12408.23047 0.125615
12409.25000 0.125655
12410.28027 0.125701
12411.30957 0.125762
12412.33008 0.125823
12413.36035 0.125884
12414.38965 0.125945
12415.41016 0.126023
12416.44043 0.126127
12417.46973 0.126232
12418.49023 0.126336
12419.51953 0.12644
12420.54980 0.126549
12421.57031 0.126663
12422.59961 0.126776
12423.62988 0.12689
12424.65039 0.127003
12425.67969 0.127139
12426.70996 0.127285
12427.74023 0.127432
12428.75977 0.127579
12429.79004 0.127725
12430.82031 0.12789
12431.84961 0.128059
12432.87012 0.128228
12433.90039 0.128397
12434.92969 0.128566
12435.95996 0.128748
12436.99023 0.128931
12438.00977 0.129115
12439.04004 0.129298
12440.07031 0.129483
12441.09961 0.129685
12442.12988 0.129886
12443.16016 0.130088
12444.19043 0.130289
12445.21973 0.130493
12446.24023 0.130704
12447.26953 0.130915
12448.29980 0.131126
12449.33008 0.131337
12450.36035 0.13155
12451.38965 0.131768
12452.41992 0.131986
12453.45020 0.132203
12454.48047 0.132421
12455.50977 0.132649
12456.54004 0.132887
12457.57031 0.133125
12458.59961 0.133364
12459.62988 0.133602
12460.66016 0.133834
12461.69043 0.134063
12462.71973 0.134292
12463.75000 0.134521
12464.78027 0.13475
12465.80957 0.134978
12466.83984 0.135205
12467.87012 0.135432
12468.90039 0.135659
12469.92969 0.135887
12470.95996 0.136104
12472.00000 0.136321
12473.03027 0.136539
12474.05957 0.136756
12475.08984 0.136972
12476.12012 0.137181
12477.15039 0.13739
12478.17969 0.137599
12479.21973 0.137808
12480.25000 0.138017
12481.28027 0.138227
12482.30957 0.138436
12483.33984 0.138645
12484.37988 0.138855
12485.41016 0.139055
12486.44043 0.13924
12487.46973 0.139426
12488.50000 0.139611
12489.54004 0.139796
12490.57031 0.139981
12491.59961 0.140164
12492.63965 0.140347
12493.66992 0.14053
12494.70020 0.140713
12495.74023 0.140876
12496.76953 0.141031
12497.79980 0.141186
12498.83008 0.14134
12499.87012 0.141495
12500.90039 0.141638
12501.92969 0.141779
12502.96973 0.141921
12504.00000 0.142062
12505.04004 0.142202
12506.07031 0.142315
12507.09961 0.142427
12508.13965 0.14254
12509.16992 0.142652
12510.20996 0.142762
12511.24023 0.142861
12512.28027 0.14296
12513.30957 0.143059
12514.33984 0.143157
12515.37988 0.143259
12516.41016 0.143366
12517.45020 0.143472
12518.48047 0.143578
12519.51953 0.143685
12520.54980 0.143778
12521.58984 0.143861
12522.62012 0.143943
12523.66016 0.144026
12524.70020 0.144109
12525.73047 0.144179
12526.76953 0.144246
12527.79980 0.144312
12528.83984 0.144378
12529.87012 0.144445
12530.91016 0.144502
12531.95020 0.144557
12532.98047 0.144613
12534.01953 0.144668
12535.04980 0.144724
12536.08984 0.144774
12537.12988 0.144823
12538.16016 0.144873
12539.20020 0.144923
12540.24023 0.144968
12541.26953 0.144998
12542.30957 0.145028
12543.34961 0.145057
12544.37988 0.145087
12545.41992 0.145119
12546.45996 0.145156
12547.50000 0.145192
12548.53027 0.145228
12549.57031 0.145265
12550.61035 0.145295
12551.65039 0.14532
12552.67969 0.145346
12553.71973 0.145371
12554.75977 0.145396
12555.79980 0.145431
12556.83984 0.145467
12557.87012 0.145504
12558.91016 0.145541
12559.95020 0.145578
12560.99023 0.145608
12562.03027 0.145638
12563.07031 0.145668
12564.11035 0.145697
12565.13965 0.145726
12566.17969 0.145752
12567.21973 0.145778
12568.25977 0.145804
12569.29980 0.14583
12570.33984 0.145855
12571.37988 0.14588
12572.41992 0.145905
12573.45996 0.14593
12574.50000 0.145955
12575.54004 0.14598
12576.58008 0.146004
12577.62012 0.146028
12578.66016 0.146052
12579.70020 0.146076
12580.74023 0.146103
12581.78027 0.146131
12582.82031 0.146159
12583.86035 0.146187
12584.90039 0.146215
12585.94043 0.146255
12586.98047 0.146297
12588.01953 0.146339
12589.05957 0.14638
12590.09961 0.14642
12591.13965 0.14644
12592.17969 0.146459
12593.21973 0.146479
12594.26953 0.146499
12595.30957 0.146521
12596.34961 0.146548
12597.38965 0.146575
12598.42969 0.146603
12599.46973 0.14663
12600.50977 0.146656
12601.55957 0.14668
12602.59961 0.146704
12603.63965 0.146727
12604.67969 0.146751
12605.71973 0.146778
12606.76953 0.146807
12607.80957 0.146835
12608.84961 0.146864
12609.88965 0.146892
12610.94043 0.146918
12611.98047 0.146944
12613.01953 0.14697
12614.07031 0.146996
12615.11035 0.147021
12616.15039 0.147043
12617.19043 0.147066
12618.24023 0.147088
12619.28027 0.14711
12620.32031 0.14713
12621.37012 0.147146
12622.41016 0.147161
12623.45020 0.147176
12624.50000 0.147192
12625.54004 0.147206
12626.58984 0.14722
12627.62988 0.147234
12628.66992 0.147247
12629.71973 0.147261
12630.75977 0.147264
12631.80957 0.147263
12632.84961 0.147262
12633.90039 0.14726
12634.94043 0.147259
12635.98047 0.147274
12637.03027 0.147289
12638.07031 0.147305
12639.12012 0.14732
12640.16016 0.147333
12641.20996 0.14733
12642.25000 0.147326
12643.29980 0.147323
12644.33984 0.14732
12645.38965 0.147317
12646.44043 0.147314
12647.48047 0.147312
12648.53027 0.14731
12649.57031 0.147307
12650.62012 0.147303
12651.66992 0.147298
12652.70996 0.147293
12653.75977 0.147287
12654.79980 0.147282
12655.84961 0.147272
12656.90039 0.147261
12657.94043 0.14725
12658.99023 0.147239
12660.04004 0.147229
12661.08008 0.147225
12662.12988 0.147222
12663.17969 0.147218
12664.21973 0.147214
12665.26953 0.14721
12666.32031 0.147204
12667.36035 0.147198
12668.41016 0.147192
12669.45996 0.147186
12670.50977 0.147179
12671.54980 0.147172
12672.59961 0.147166
12673.65039 0.147159
12674.70020 0.147152
12675.75000 0.147145
12676.79004 0.147138
12677.83984 0.147131
12678.88965 0.147124
12679.94043 0.147118
12680.99023 0.147119
12682.04004 0.147121
12683.08008 0.147123
12684.12988 0.147125
12685.17969 0.147127
12686.23047 0.14713
12687.28027 0.147133
12688.33008 0.147136
12689.37988 0.147138
12690.42969 0.147143
12691.46973 0.147149
12692.51953 0.147155
12693.57031 0.147161
12694.62012 0.147167
12695.66992 0.14718
12696.71973 0.147198
12697.76953 0.147216
12698.82031 0.147234
12699.87012 0.147252
12700.91992 0.14727
12701.96973 0.147289
12703.01953 0.147308
12704.07031 0.147327
12705.12012 0.147344
12706.16992 0.147351
12707.21973 0.147358
12708.26953 0.147365
12709.33008 0.147372
12710.37988 0.147387
12711.42969 0.147414
12712.48047 0.147441
12713.53027 0.147469
12714.58008 0.147496
12715.62988 0.14751
12716.67969 0.147514
12717.73047 0.147518
12718.79004 0.147522
12719.83984 0.147527
12720.88965 0.147536
12721.94043 0.147547
12722.99023 0.147558
12724.04004 0.147569
12725.09961 0.14758
12726.15039 0.147589
12727.20020 0.147598
12728.25000 0.147608
12729.30957 0.147617
12730.36035 0.147616
12731.41016 0.147595
12732.45996 0.147573
12733.51953 0.147552
12734.57031 0.14753
12735.62012 0.147508
12736.66992 0.147485
12737.73047 0.147462
12738.78027 0.147439
12739.83008 0.147416
12740.88965 0.147384
12741.94043 0.147351
12742.99023 0.147318
12744.04980 0.147284
12745.09961 0.147247
12746.16016 0.147172
12747.20996 0.147097
12748.25977 0.147023
12749.32031 0.146948
12750.37012 0.146863
12751.41992 0.14676
12752.48047 0.146657
12753.53027 0.146554
12754.58984 0.146451
12755.63965 0.146336
12756.70020 0.146214
12757.75000 0.146092
12758.80957 0.14597
12759.86035 0.145847
12760.91992 0.145697
12761.96973 0.145541
12763.03027 0.145386
12764.08008 0.145231
12765.13965 0.145071
12766.19043 0.144874
12767.25000 0.144679
12768.29980 0.144483
12769.36035 0.144286
12770.41992 0.144073
12771.46973 0.143832
12772.53027 0.143591
12773.58008 0.143351
12774.63965 0.14311
12775.70020 0.14284
12776.75000 0.142554
12777.80957 0.142268
12778.87012 0.141982
12779.91992 0.141697
12780.98047 0.141396
12782.04004 0.141094
12783.08984 0.140792
12784.15039 0.14049
12785.20996 0.140181
12786.25977 0.139841
12787.32031 0.1395
12788.37988 0.13916
12789.42969 0.138819
12790.49023 0.138471
12791.54980 0.138114
12792.61035 0.137757
12793.66016 0.1374
12794.71973 0.137043
12795.78027 0.136649
12796.83984 0.136242
12797.90039 0.135834
12798.95020 0.135427
12800.00977 0.135019
12801.07031 0.134604
12802.12988 0.134188
12803.19043 0.133772
12804.25000 0.133356
12805.29980 0.132929
12806.36035 0.132474
12807.41992 0.132019
12808.48047 0.131564
12809.54004 0.131109
12810.59961 0.130653
12811.66016 0.130196
12812.71973 0.129739
12813.78027 0.129282
12814.83984 0.128825
12815.90039 0.128391
12816.95996 0.127962
12818.01953 0.127532
12819.08008 0.127102
12820.12988 0.126669
12821.20020 0.126213
12822.25000 0.125757
12823.32031 0.125301
12824.37988 0.124844
12825.44043 0.124396
12826.50000 0.123956
12827.55957 0.123517
12828.62012 0.123078
12829.67969 0.122638
12830.74023 0.122205
12831.79980 0.121775
12832.86035 0.121345
12833.91992 0.120914
12834.98047 0.120484
12836.04004 0.120057
12837.11035 0.119631
12838.16992 0.119204
12839.23047 0.118777
12840.29004 0.118357
12841.34961 0.117952
12842.41016 0.117546
12843.46973 0.117141
12844.54004 0.116736
12845.59961 0.116362
12846.66016 0.116011
12847.71973 0.115661
12848.79004 0.11531
12849.84961 0.11496
12850.91016 0.114639
12851.96973 0.114324
12853.04004 0.114009
12854.09961 0.113695
12855.16016 0.113383
12856.21973 0.113089
12857.29004 0.112795
12858.34961 0.112501
12859.41016 0.112207
12860.48047 0.111929
12861.54004 0.111672
12862.59961 0.111414
12863.66992 0.111156
12864.73047 0.110899
12865.79004 0.110664
12866.86035 0.110438
12867.91992 0.110212
12868.98047 0.109986
12870.04980 0.109763
12871.11035 0.109594
12872.17969 0.109425
12873.24023 0.109256
12874.29980 0.109087
12875.37012 0.108933
12876.42969 0.108807
12877.50000 0.108681
12878.55957 0.108554
12879.62988 0.108428
12880.69043 0.10833
12881.75977 0.108248
12882.82031 0.108165
12883.88965 0.108083
12884.95020 0.108
12886.01953 0.107963
12887.08008 0.107928
12888.15039 0.107892
12889.21973 0.107857
12890.28027 0.107834
12891.34961 0.107846
12892.41016 0.107858
12893.48047 0.10787
12894.54004 0.107883
12895.61035 0.107915
12896.67969 0.107963
12897.74023 0.108011
12898.80957 0.108059
12899.87988 0.108107
12900.94043 0.108207
12902.00977 0.108313
12903.08008 0.10842
12904.13965 0.108526
12905.20996 0.108641
12906.28027 0.108789
12907.33984 0.108938
12908.41016 0.109086
12909.48047 0.109234
12910.54980 0.109393
12911.61035 0.109562
12912.67969 0.109731
12913.75000 0.109901
12914.82031 0.11007
12915.87988 0.110287
12916.95020 0.110513
12918.01953 0.110739
12919.08984 0.110966
12920.16016 0.111196
12921.21973 0.111448
12922.29004 0.1117
12923.36035 0.111953
12924.42969 0.112205
12925.50000 0.112486
12926.57031 0.112798
12927.62988 0.11311
12928.70020 0.113423
12929.76953 0.113735
12930.83984 0.114054
12931.91016 0.114375
12932.98047 0.114696
12934.04980 0.115017
12935.12012 0.115342
12936.19043 0.115698
12937.25977 0.116054
12938.33008 0.11641
12939.40039 0.116766
12940.46973 0.117122
12941.54004 0.11748
12942.61035 0.117837
12943.67969 0.118194
12944.75000 0.118551
12945.82031 0.118925
12946.88965 0.119304
12947.95996 0.119683
12949.03027 0.120062
12950.09961 0.120439
12951.16992 0.120802
12952.24023 0.121166
12953.30957 0.121529
12954.37988 0.121892
12955.45020 0.122259
12956.53027 0.122631
12957.59961 0.123002
12958.66992 0.123374
12959.74023 0.123745
12960.80957 0.124104
12961.87988 0.12446
12962.95020 0.124815
12964.03027 0.12517
12965.09961 0.125526
12966.16992 0.125894
12967.24023 0.126261
12968.30957 0.126628
12969.38965 0.126996
12970.45996 0.127336
12971.53027 0.12764
12972.59961 0.127944
12973.67969 0.128248
12974.75000 0.128551
12975.82031 0.128823
12976.88965 0.129083
12977.96973 0.129344
12979.04004 0.129605
12980.11035 0.12986
12981.19043 0.130064
12982.25977 0.130268
12983.33008 0.130471
12984.41016 0.130675
12985.48047 0.13086
12986.54980 0.131022
12987.62988 0.131183
12988.70020 0.131345
12989.78027 0.131507
12990.84961 0.131635
12991.91992 0.131754
12993.00000 0.131873
12994.07031 0.131993
12995.15039 0.132102
12996.21973 0.132152
12997.29004 0.132202
12998.37012 0.132251
12999.44043 0.132301
13000.51953 0.13234
13001.58984 0.132366
13002.66992 0.132392
13003.74023 0.132419
13004.82031 0.132445
13005.88965 0.132431
13006.96973 0.132407
13008.04004 0.132384
13009.12012 0.132361
13010.20020 0.132325
13011.26953 0.132235
13012.34961 0.132145
13013.41992 0.132055
13014.50000 0.131965
13015.58008 0.131866
13016.65039 0.13176
13017.73047 0.131654
13018.79980 0.131548
13019.87988 0.131442
13020.95996 0.131297
13022.03027 0.131146
13023.11035 0.130995
13024.19043 0.130844
13025.25977 0.130681
13026.33984 0.13048
13027.41992 0.13028
13028.49023 0.130079
13029.57031 0.129878
13030.65039 0.129677
13031.73047 0.129476
13032.79980 0.129275
13033.87988 0.129074
13034.95996 0.128873
13036.04004 0.128644
13037.11035 0.128414
13038.19043 0.128184
13039.26953 0.127953
13040.34961 0.127732
13041.42969 0.127531
13042.50000 0.12733
13043.58008 0.127129
13044.66016 0.126928
13045.74023 0.126725
13046.82031 0.126522
13047.90039 0.126319
13048.98047 0.126116
13050.05957 0.125914
13051.12988 0.125722
13052.20996 0.125529
13053.29004 0.125337
13054.37012 0.125144
13055.45020 0.12496
13056.53027 0.124788
13057.61035 0.124615
13058.69043 0.124443
13059.76953 0.12427
13060.84961 0.124107
13061.92969 0.123948
13063.00977 0.123787
13064.08984 0.123627
13065.16992 0.123476
13066.25000 0.12337
13067.33008 0.123264
13068.41016 0.123158
13069.49023 0.123051
13070.57031 0.122965
13071.65039 0.122897
13072.73047 0.122828
13073.80957 0.122759
13074.88965 0.12269
13075.98047 0.122659
13077.05957 0.122632
13078.13965 0.122605
13079.21973 0.122578
13080.29980 0.122563
13081.37988 0.12258
13082.45996 0.122596
13083.54004 0.122613
13084.62988 0.12263
13085.70996 0.122674
13086.79004 0.122731
13087.87012 0.122789
13088.95020 0.122846
13090.04004 0.122906
13091.12012 0.123015
13092.20020 0.123124
13093.28027 0.123233
13094.37012 0.123342
13095.45020 0.123479
13096.53027 0.123653
13097.61035 0.123827
13098.70020 0.124002
13099.78027 0.124177
13100.86035 0.124365
13101.95020 0.124556
13103.03027 0.124748
13104.11035 0.12494
13105.20020 0.125141
13106.28027 0.125387
13107.36035 0.125634
13108.45020 0.12588
13109.53027 0.126127
13110.62012 0.12639
13111.70020 0.126665
13112.78027 0.126941
13113.87012 0.127216
13114.95020 0.127492
13116.04004 0.127815
13117.12012 0.128141
13118.20996 0.128467
13119.29004 0.128793
13120.37012 0.129131
13121.45996 0.129491
13122.54004 0.12985
13123.62988 0.13021
13124.70996 0.130571
13125.79980 0.130948
13126.87988 0.131333
13127.96973 0.131717
13129.05957 0.132102
13130.13965 0.132486
13131.23047 0.132863
13132.30957 0.133241
13133.40039 0.133619
13134.48047 0.133997
13135.57031 0.134374
13136.66016 0.134749
13137.74023 0.135126
13138.83008 0.135501
13139.91016 0.135877
13141.00000 0.136246
13142.08984 0.136614
13143.16992 0.136983
13144.25977 0.137351
13145.34961 0.137713
13146.42969 0.13806
13147.51953 0.138408
13148.61035 0.138756
13149.70020 0.139103
13150.78027 0.13943
13151.87012 0.139747
13152.95996 0.140065
13154.04004 0.140383
13155.12988 0.140696
13156.21973 0.140967
13157.30957 0.141238
13158.40039 0.141509
13159.48047 0.141781
13160.57031 0.142011
13161.66016 0.142205
13162.75000 0.142398
13163.83984 0.142592
13164.91992 0.142786
13166.00977 0.142911
13167.09961 0.143032
13168.19043 0.143152
13169.28027 0.143272
13170.37012 0.143369
13171.45996 0.143419
13172.54980 0.143469
13173.62988 0.143519
13174.71973 0.143569
13175.80957 0.143552
13176.90039 0.143513
13177.99023 0.143473
13179.08008 0.143434
13180.16992 0.143379
13181.25977 0.143244
13182.34961 0.143109
13183.44043 0.142974
13184.53027 0.142839
13185.62012 0.142657
13186.70996 0.14244
13187.79980 0.142223
13188.88965 0.142006
13189.98047 0.141789
13191.07031 0.141473
13192.16016 0.141155
13193.25000 0.140838
13194.33984 0.14052
13195.44043 0.140183
13196.53027 0.139817
13197.62012 0.139451
13198.70996 0.139083
13199.79980 0.138717
13200.88965 0.138298
13201.98047 0.137869
13203.07031 0.137438
13204.16992 0.137008
13205.25977 0.136566
13206.34961 0.136087
13207.44043 0.135608
13208.53027 0.13513
13209.62012 0.134651
13210.71973 0.134143
13211.80957 0.13362
13212.90039 0.133097
13214.00000 0.132574
13215.08984 0.132045
13216.17969 0.131447
13217.26953 0.130849
13218.37012 0.130251
13219.45996 0.129652
13220.54980 0.129049
13221.63965 0.128441
13222.74023 0.127832
13223.83008 0.127223
13224.91992 0.126614
13226.01953 0.126049
13227.11035 0.125486
13228.20020 0.124923
13229.29980 0.124359
13230.38965 0.123797
13231.49023 0.123237
13232.58008 0.122676
13233.66992 0.122116
13234.76953 0.121554
13235.86035 0.121002
13236.95996 0.120451
13238.04980 0.1199
13239.15039 0.119348
13240.24023 0.118805
13241.33008 0.118291
13242.42969 0.117778
13243.51953 0.117264
13244.62012 0.11675
13245.70996 0.116258
13246.80957 0.115778
13247.91016 0.115297
13249.00000 0.114817
13250.09961 0.114338
13251.19043 0.113876
13252.29004 0.113415
13253.37988 0.112953
13254.48047 0.11249
13255.57031 0.11207
13256.66992 0.111689
13257.76953 0.111306
13258.86035 0.110924
13259.95996 0.110542
13261.04980 0.110231
13262.15039 0.109923
13263.25000 0.109615
13264.33984 0.109307
13265.44043 0.109017
13266.54004 0.108753
13267.62988 0.10849
13268.73047 0.108226
13269.83008 0.107962
13270.92969 0.107747
13272.01953 0.10754
13273.12012 0.107333
13274.21973 0.107126
13275.32031 0.106936
13276.41016 0.106786
13277.50977 0.106635
13278.61035 0.106485
13279.70996 0.106334
13280.79980 0.106235
13281.90039 0.106154
13283.00000 0.106073
13284.09961 0.105992
13285.20020 0.105924
13286.29980 0.105918
13287.38965 0.105913
13288.49023 0.105907
13289.58984 0.105901
13290.69043 0.105934
13291.79004 0.10599
13292.88965 0.106045
13293.99023 0.106101
13295.08984 0.106163
13296.19043 0.106295
13297.29004 0.106427
13298.37988 0.106559
13299.48047 0.106691
13300.58008 0.106854
13301.67969 0.107045
13302.78027 0.107235
13303.87988 0.107426
13304.98047 0.107617
13306.08008 0.107883
13307.17969 0.108151
13308.28027 0.108419
13309.37988 0.108686
13310.48047 0.108994
13311.58008 0.109351
13312.67969 0.109708
13313.79004 0.110066
13314.88965 0.110424
13315.99023 0.110837
13317.08984 0.111258
13318.19043 0.111679
13319.29004 0.1121
13320.38965 0.11254
13321.49023 0.113014
13322.58984 0.113488
13323.70020 0.113962
13324.79980 0.114437
13325.90039 0.114963
13327.00000 0.115502
13328.09961 0.116041
13329.20996 0.11658
13330.30957 0.117133
13331.41016 0.117721
13332.50977 0.118309
13333.61035 0.118898
13334.71973 0.119487
13335.82031 0.120113
13336.91992 0.120752
13338.01953 0.121392
13339.12988 0.122032
13340.23047 0.122695
13341.33008 0.123445
13342.44043 0.124196
13343.54004 0.124946
13344.63965 0.125697
13345.75000 0.126469
13346.84961 0.127251
13347.95020 0.128033
13349.05957 0.128816
13350.16016 0.129594
13351.25977 0.130349
13352.37012 0.131104
13353.46973 0.131858
13354.58008 0.132614
13355.67969 0.133379
13356.78027 0.134152
13357.88965 0.134925
13358.99023 0.135698
13360.09961 0.136472
13361.20020 0.137247
13362.30957 0.138023
13363.41016 0.138799
13364.51953 0.139575
13365.62012 0.140329
13366.73047 0.141067
13367.83008 0.141805
13368.94043 0.142543
13370.04004 0.14328
13371.15039 0.144015
13372.25000 0.144751
13373.36035 0.145487
13374.45996 0.146222
13375.57031 0.14692
13376.67969 0.147582
13377.78027 0.148243
13378.88965 0.148906
13379.99023 0.149568
13381.09961 0.150133
13382.20996 0.150698
13383.30957 0.151263
13384.41992 0.151829
13385.53027 0.152331
13386.62988 0.152763
13387.74023 0.153195
13388.84961 0.153627
13389.95020 0.154059
13391.05957 0.154381
13392.16992 0.154698
13393.26953 0.155015
13394.37988 0.155332
13395.49023 0.155597
13396.59961 0.155797
13397.70020 0.155996
13398.80957 0.156195
13399.91992 0.156394
13401.03027 0.156454
13402.13965 0.156502
13403.24023 0.156551
13404.34961 0.156599
13405.45996 0.156587
13406.57031 0.156488
13407.67969 0.156389
13408.79004 0.15629
13409.88965 0.156192
13411.00000 0.155959
13412.11035 0.155713
13413.21973 0.155467
13414.33008 0.15522
13415.44043 0.154934
13416.54980 0.154588
13417.66016 0.154241
13418.76953 0.153894
13419.87988 0.153547
13420.99023 0.153088
13422.09961 0.152614
13423.20996 0.15214
13424.32031 0.151665
13425.41992 0.151155
13426.54004 0.150588
13427.65039 0.15002
13428.75000 0.149453
13429.87012 0.148885
13430.98047 0.148218
13432.08984 0.147537
13433.20020 0.146855
13434.30957 0.146174
13435.41992 0.145481
13436.53027 0.14477
13437.63965 0.144059
13438.75000 0.143347
13439.86035 0.142634
13440.96973 0.141837
13442.08008 0.141027
13443.20020 0.140217
13444.30957 0.139407
13445.41992 0.138621
13446.53027 0.137875
13447.63965 0.13713
13448.75000 0.136383
13449.87012 0.135637
13450.98047 0.134878
13452.08984 0.134117
13453.20020 0.133356
13454.32031 0.132594
13455.42969 0.131851
13456.54004 0.131137
13457.65039 0.130423
13458.76953 0.129708
13459.87988 0.128993
13460.99023 0.128264
13462.09961 0.127534
13463.21973 0.126802
13464.33008 0.126071
13465.44043 0.125348
13466.55957 0.124639
13467.66992 0.123929
13468.78027 0.123219
13469.90039 0.122509
13471.00977 0.121814
13472.12012 0.121121
13473.24023 0.120426
13474.34961 0.119732
13475.46973 0.11908
13476.58008 0.118488
13477.69043 0.117896
13478.80957 0.117303
13479.91992 0.116709
13481.04004 0.116181
13482.15039 0.115656
13483.26953 0.115131
13484.37988 0.114606
13485.50000 0.114103
13486.61035 0.113628
13487.73047 0.113153
13488.83984 0.112677
13489.95996 0.112202
13491.07031 0.111782
13492.19043 0.111365
13493.29980 0.110947
13494.41992 0.11053
13495.54004 0.110142
13496.65039 0.109786
13497.76953 0.109431
13498.87988 0.109075
13500.00000 0.108719
13501.12012 0.10839
13502.23047 0.10806
13503.34961 0.107731
13504.45996 0.107401
13505.58008 0.10711
13506.70020 0.106857
13507.80957 0.106603
13508.92969 0.106349
13510.04980 0.106098
13511.16992 0.105905
13512.28027 0.105713
13513.40039 0.10552
13514.51953 0.105327
13515.62988 0.105165
13516.75000 0.105026
13517.87012 0.104888
13518.99023 0.104749
13520.09961 0.104615
13521.21973 0.104529
13522.33984 0.104444
13523.45996 0.104358
13524.58008 0.104273
13525.69043 0.104209
13526.80957 0.104158
13527.92969 0.104108
13529.04980 0.104057
13530.16992 0.104014
13531.29004 0.104016
13532.41016 0.104018
13533.51953 0.10402
13534.63965 0.104022
13535.75977 0.104065
13536.87988 0.104129
13538.00000 0.104192
13539.12012 0.104256
13540.24023 0.104326
13541.36035 0.104419
13542.48047 0.104513
13543.59961 0.104606
13544.71973 0.104699
13545.83984 0.104822
13546.95996 0.104954
13548.08008 0.105085
13549.20020 0.105218
13550.32031 0.105363
13551.44043 0.105544
13552.55957 0.105725
13553.67969 0.105906
13554.79980 0.106087
13555.91992 0.106276
13557.04004 0.106467
13558.16016 0.106658
13559.28027 0.106849
13560.40039 0.107055
13561.53027 0.107288
13562.65039 0.10752
13563.76953 0.107753
13564.88965 0.107985
13566.00977 0.108234
13567.12988 0.108485
13568.25000 0.108736
13569.37988 0.108987
13570.50000 0.109232
13571.62012 0.109469
13572.74023 0.109707
13573.86035 0.109946
13574.99023 0.110184
13576.11035 0.110445
13577.23047 0.110705
13578.34961 0.110967
13579.48047 0.111228
13580.59961 0.111492
13581.71973 0.111759
13582.84961 0.112026
13583.96973 0.112293
13585.08984 0.112561
13586.20996 0.112839
13587.33984 0.113117
13588.45996 0.113395
13589.58008 0.113673
13590.70996 0.113941
13591.83008 0.114203
13592.95996 0.114465
13594.08008 0.114728
13595.20020 0.114988
13596.33008 0.115235
13597.45020 0.115482
13598.58008 0.115729
13599.70020 0.115976
13600.83008 0.116225
13601.95020 0.116473
13603.07031 0.116721
13604.20020 0.11697
13605.32031 0.11721
13606.45020 0.117433
13607.57031 0.117655
13608.70020 0.117877
13609.82031 0.118099
13610.95020 0.118293
13612.07031 0.118482
13613.20020 0.118671
13614.33008 0.11886
13615.45020 0.119044
13616.58008 0.119219
13617.70020 0.119395
13618.83008 0.11957
13619.95020 0.119746
13621.08008 0.119906
13622.20996 0.120065
13623.33008 0.120224
13624.45996 0.120383
13625.58984 0.120518
13626.70996 0.120628
13627.83984 0.120739
13628.96973 0.12085
13630.08984 0.120958
13631.21973 0.121031
13632.34961 0.121103
13633.46973 0.121175
13634.59961 0.121248
13635.73047 0.121305
13636.86035 0.121353
13637.98047 0.121402
13639.11035 0.12145
13640.24023 0.121492
13641.37012 0.12151
13642.49023 0.121527
13643.62012 0.121545
13644.75000 0.121563
13645.87988 0.121569
13647.00977 0.121572
13648.12988 0.121575
13649.25977 0.121578
13650.38965 0.121576
13651.51953 0.121563
13652.65039 0.121551
13653.78027 0.121538
13654.91016 0.121526
13656.04004 0.121503
13657.16992 0.121479
13658.29004 0.121455
13659.41992 0.121431
13660.54980 0.121399
13661.67969 0.121358
13662.80957 0.121318
13663.94043 0.121277
13665.07031 0.121235
13666.20020 0.121171
13667.33008 0.121106
13668.45996 0.121042
13669.58984 0.120977
13670.71973 0.120911
13671.84961 0.120844
13672.98047 0.120778
13674.11035 0.120711
13675.24023 0.120644
13676.37012 0.120577
13677.50000 0.12051
13678.62988 0.120444
13679.76953 0.120377
13680.90039 0.120308
13682.03027 0.12024
13683.16016 0.120171
13684.29004 0.120103
13685.41992 0.120039
13686.54980 0.119982
13687.67969 0.119926
13688.82031 0.11987
13689.95020 0.119813
13691.08008 0.119766
13692.20996 0.119719
13693.33984 0.119672
13694.48047 0.119625
13695.61035 0.119573
13696.74023 0.119516
13697.87012 0.11946
13699.00977 0.119404
13700.13965 0.119352
13701.26953 0.119331
13702.40039 0.119309
13703.54004 0.119288
13704.66992 0.119267
13705.79980 0.119235
13706.94043 0.119198
13708.07031 0.119162
13709.20020 0.119125
13710.33984 0.119098
13711.46973 0.119095
13712.59961 0.119091
13713.74023 0.119088
13714.87012 0.119084
13716.00000 0.119079
13717.13965 0.119074
13718.26953 0.119068
13719.41016 0.119063
13720.54004 0.119064
13721.67969 0.119072
13722.80957 0.11908
13723.95020 0.119088
13725.08008 0.119097
13726.20996 0.119123
13727.34961 0.11915
13728.48047 0.119176
13729.62012 0.119202
13730.75000 0.11924
13731.88965 0.119284
13733.03027 0.119327
13734.16016 0.11937
13735.29980 0.119413
13736.42969 0.119454
13737.57031 0.119495
13738.70020 0.119537
13739.83984 0.119578
13740.98047 0.119645
13742.11035 0.119718
13743.25000 0.11979
13744.37988 0.119862
13745.51953 0.119934
13746.66016 0.120006
13747.79004 0.120077
13748.92969 0.120149
13750.07031 0.120222
13751.20020 0.120311
13752.33984 0.120401
13753.48047 0.12049
13754.62012 0.12058
13755.75000 0.120669
13756.88965 0.120758
13758.03027 0.120847
13759.16992 0.120936
13760.29980 0.12103
13761.44043 0.12114
13762.58008 0.121249
13763.71973 0.121358
13764.84961 0.121468
13765.99023 0.121568
13767.12988 0.121668
13768.26953 0.121767
13769.41016 0.121867
13770.54004 0.121977
13771.67969 0.1221
13772.82031 0.122223
13773.95996 0.122346
13775.09961 0.122467
13776.24023 0.122567
13777.37988 0.122668
13778.51953 0.122768
13779.66016 0.122869
13780.79004 0.122984
13781.92969 0.123105
13783.07031 0.123226
13784.20996 0.123348
13785.34961 0.123466
13786.49023 0.123577
13787.62988 0.123688
13788.76953 0.123799
13789.91016 0.12391
13791.04980 0.124033
13792.19043 0.124157
13793.33008 0.124281
13794.46973 0.124406
13795.61035 0.124521
13796.75000 0.124629
13797.90039 0.124737
13799.04004 0.124845
13800.17969 0.124955
13801.32031 0.12507
13802.45996 0.125185
13803.59961 0.125299
13804.74023 0.125414
13805.87988 0.125518
13807.03027 0.125619
13808.16992 0.125719
13809.30957 0.12582
13810.45020 0.125926
13811.58984 0.126042
13812.73047 0.126158
13813.87988 0.126274
13815.01953 0.126389
13816.16016 0.126488
13817.29980 0.126587
13818.44043 0.126687
13819.58984 0.126786
13820.73047 0.126898
13821.87012 0.127018
13823.01953 0.127138
13824.16016 0.127258
13825.29980 0.127372
13826.44043 0.127471
13827.58984 0.12757
13828.73047 0.127668
13829.87012 0.127768
13831.01953 0.127873
13832.16016 0.12798
13833.29980 0.128087
13834.45020 0.128193
13835.58984 0.12828
13836.74023 0.128348
13837.87988 0.128415
13839.01953 0.128483
13840.16992 0.128555
13841.30957 0.128647
13842.45996 0.128739
13843.59961 0.128831
13844.75000 0.128924
13845.88965 0.128978
13847.04004 0.129023
13848.17969 0.129067
13849.33008 0.129111
13850.46973 0.129158
13851.62012 0.12921
13852.75977 0.129263
13853.91016 0.129315
13855.04980 0.129367
13856.20020 0.129415
13857.33984 0.129463
13858.49023 0.12951
13859.62988 0.129558
13860.78027 0.129577
13861.92969 0.129581
13863.07031 0.129585
13864.21973 0.129589
13865.37012 0.12959
13866.50977 0.129584
13867.66016 0.129578
13868.79980 0.129572
13869.95020 0.129566
13871.09961 0.129527
13872.25000 0.129487
13873.38965 0.129447
13874.54004 0.129407
13875.69043 0.129329
13876.83008 0.129226
13877.98047 0.129122
13879.12988 0.129018
13880.28027 0.128906
13881.41992 0.128767
13882.57031 0.128628
13883.71973 0.128489
13884.87012 0.12835
13886.00977 0.128151
13887.16016 0.127945
13888.30957 0.127738
13889.45996 0.127531
13890.61035 0.127302
13891.75977 0.127052
13892.90039 0.126802
13894.04980 0.126552
13895.20020 0.126294
13896.34961 0.125996
13897.50000 0.125699
13898.65039 0.125401
13899.79980 0.125103
13900.95020 0.124776
13902.09961 0.124443
13903.25000 0.12411
13904.40039 0.123776
13905.54004 0.123381
13906.69043 0.122918
13907.83984 0.122454
13908.99023 0.12199
13910.13965 0.121509
13911.29004 0.120915
13912.44043 0.12032
13913.58984 0.119724
13914.75000 0.119129
13915.90039 0.118429
13917.04980 0.117699
13918.20020 0.116968
13919.34961 0.116237
13920.50000 0.115499
13921.65039 0.114752
13922.79980 0.114004
13923.95020 0.113256
13925.09961 0.112504
13926.25000 0.111713
13927.41016 0.110922
13928.55957 0.110131
13929.70996 0.109339
13930.86035 0.108517
13932.00977 0.107685
13933.16016 0.106852
13934.32031 0.106019
13935.46973 0.105164
13936.62012 0.104277
13937.76953 0.103389
13938.91992 0.102502
13940.08008 0.101608
13941.23047 0.100631
13942.37988 0.099652
13943.54004 0.098674
13944.69043 0.097695
13945.83984 0.096577
13946.99023 0.095405
13948.15039 0.094233
13949.29980 0.09306
13950.45020 0.091888
13951.61035 0.090717
13952.75977 0.089545
13953.91016 0.088373
13955.07031 0.087202
13956.21973 0.086066
13957.37988 0.084928
13958.53027 0.083791
13959.67969 0.082653
13960.83984 0.081533
13961.99023 0.080419
13963.15039 0.079306
13964.29980 0.078191
13965.45996 0.077107
13966.61035 0.076072
13967.75977 0.075035
13968.91992 0.073998
13970.08008 0.072964
13971.23047 0.071976
13972.37988 0.070986
13973.54004 0.069997
13974.70020 0.069007
13975.84961 0.067995
13977.00977 0.066973
13978.16016 0.065952
13979.32031 0.064931
13980.46973 0.063951
13981.62988 0.063031
13982.79004 0.062111
13983.94043 0.061191
13985.09961 0.060272
13986.25000 0.059384
13987.41016 0.058495
13988.57031 0.057605
13989.71973 0.056716
13990.87988 0.055825
13992.04004 0.054933
13993.19043 0.054042
13994.34961 0.053149
13995.50977 0.05225
13996.66992 0.051341
13997.82031 0.050432
13998.98047 0.049523
14000.13965 0.048622
14001.29004 0.047785
14002.45020 0.046949
14003.61035 0.046113
14004.76953 0.045276
14005.92969 0.044458
14007.08008 0.043644
14008.24023 0.04283
14009.40039 0.042016
14010.55957 0.041243
14011.71973 0.040516
14012.87012 0.039789
14014.03027 0.039062
14015.19043 0.038356
14016.34961 0.037762
14017.50977 0.037168
14018.66992 0.036573
14019.83008 0.035978
14020.99023 0.035437
14022.15039 0.034905
14023.30957 0.034372
14024.45996 0.03384
14025.62988 0.033329
14026.78027 0.032836
14027.94043 0.032344
14029.09961 0.031851
14030.25977 0.031357
14031.41992 0.030861
14032.58008 0.030365
14033.74023 0.029869
14034.90039 0.029373
14036.05957 0.02889
14037.23047 0.028409
14038.38965 0.027928
14039.54980 0.027446
14040.70996 0.026984
14041.87012 0.026533
14043.03027 0.026082
14044.19043 0.025631
14045.34961 0.025196
14046.50977 0.024795
14047.66992 0.024394
14048.83984 0.023993
14050.00000 0.023592
14051.16016 0.023244
14052.32031 0.022897
14053.48047 0.022549
14054.63965 0.022201
14055.80957 0.021858
14056.96973 0.021516
14058.12988 0.021174
14059.29004 0.020832
14060.45996 0.020508
14061.62012 0.020211
14062.78027 0.019913
14063.94043 0.019616
14065.11035 0.019321
14066.26953 0.019053
14067.42969 0.018786
14068.58984 0.018518
14069.75977 0.01825
14070.91992 0.017985
14072.08008 0.017722
14073.25000 0.017459
14074.41016 0.017196
14075.58008 0.016942
14076.74023 0.016697
14077.90039 0.016452
14079.07031 0.016207
14080.23047 0.015967
14081.40039 0.01575
14082.55957 0.015532
14083.71973 0.015314
14084.88965 0.015096
14086.04980 0.01489
14087.21973 0.014684
14088.37988 0.014478
14089.54980 0.014272
14090.70996 0.014083
14091.87988 0.013903
14093.04004 0.013723
14094.20996 0.013544
14095.37012 0.013363
14096.54004 0.013179
14097.70020 0.012995
14098.87012 0.012811
14100.04004 0.012627
14101.20020 0.012451
14102.37012 0.012275
14103.53027 0.012098
14104.70020 0.011921
14105.86035 0.011767
14107.03027 0.011619
14108.20020 0.011472
14109.36035 0.011325
14110.53027 0.011186
14111.70020 0.011059
14112.86035 0.010931
14114.03027 0.010803
14115.20020 0.010676
14116.36035 0.010555
14117.53027 0.010435
14118.70020 0.010314
14119.87012 0.010193
14121.03027 0.010071
14122.20020 0.009949
14123.37012 0.009826
14124.54004 0.009704
14125.70020 0.009586
14126.87012 0.009471
14128.04004 0.009355
14129.20996 0.00924
14130.37988 0.009125
14131.54004 0.009013
14132.70996 0.008901
14133.87988 0.008789
14135.04980 0.008677
14136.21973 0.00857
14137.38965 0.008463
14138.55957 0.008357
14139.73047 0.00825
14140.88965 0.008152
14142.05957 0.008057
14143.23047 0.007962
14144.40039 0.007867
14145.57031 0.007777
14146.74023 0.007691
14147.91016 0.007605
14149.08008 0.007519
14150.25000 0.007433
14151.41992 0.007349
14152.58984 0.007265
14153.75977 0.00718
14154.92969 0.007096
14156.09961 0.007017
14157.26953 0.006938
14158.44043 0.006859
14159.61035 0.00678
14160.78027 0.006708
14161.95020 0.006641
14163.12012 0.006573
14164.29980 0.006505
14165.46973 0.006433
14166.63965 0.006357
14167.80957 0.006281
14168.98047 0.006205
14170.15039 0.00613
14171.32031 0.006064
14172.50000 0.005997
14173.66992 0.005931
14174.83984 0.005864
14176.00977 0.005804
14177.17969 0.005744
14178.36035 0.005685
14179.53027 0.005625
14180.70020 0.005566
14181.87012 0.005506
14183.04980 0.005447
14184.21973 0.005388
14185.38965 0.005328
14186.55957 0.005266
14187.74023 0.005205
14188.91016 0.005144
14190.08008 0.005084
14191.25977 0.00503
14192.42969 0.004976
14193.59961 0.004923
14194.78027 0.004869
14195.95020 0.004811
14197.12012 0.004752
14198.29980 0.004693
14199.46973 0.004635
14200.65039 0.004583
14201.82031 0.004538
14202.99023 0.004493
14204.16992 0.004448
14205.33984 0.004403
14206.51953 0.004361
14207.69043 0.004319
14208.87012 0.004276
14210.04004 0.004234
14211.21973 0.004189
14212.38965 0.004144
14213.57031 0.004098
14214.74023 0.004053
14215.91992 0.004014
14217.08984 0.003976
14218.26953 0.003938
14219.44043 0.0039
14220.62012 0.003861
14221.79004 0.00382
14222.96973 0.00378
14224.15039 0.003739
14225.32031 0.003699
14226.50000 0.003663
14227.66992 0.003626
14228.84961 0.00359
14230.03027 0.003553
14231.20020 0.003512
14232.37988 0.003471
14233.55957 0.00343
14234.73047 0.003389
14235.91016 0.00336
14237.08984 0.003334
14238.25977 0.003308
14239.44043 0.003282
14240.62012 0.003252
14241.79980 0.00322
14242.96973 0.003188
14244.15039 0.003155
14245.33008 0.003122
14246.50977 0.003088
14247.69043 0.003053
14248.86035 0.003019
14250.04004 0.002985
14251.21973 0.002958
14252.40039 0.002932
14253.58008 0.002905
14254.75000 0.002879
14255.92969 0.002847
14257.11035 0.002813
14258.29004 0.00278
14259.46973 0.002747
14260.65039 0.00272
14261.83008 0.002698
14263.00977 0.002676
14264.19043 0.002654
14265.37012 0.00263
14266.54004 0.002602
14267.71973 0.002574
14268.90039 0.002545
14270.08008 0.002517
14271.25977 0.002497
14272.44043 0.002476
14273.62012 0.002456
14274.79980 0.002435
14275.98047 0.002415
14277.16016 0.002395
14278.33984 0.002374
14279.53027 0.002354
14280.70996 0.002331
14281.88965 0.002307
14283.07031 0.002283
14284.25000 0.002259
14285.42969 0.002235
14286.61035 0.002211
14287.79004 0.002187
14288.96973 0.002163
14290.15039 0.00214
14291.33984 0.002122
14292.51953 0.002105
14293.70020 0.002088
14294.87988 0.002071
14296.05957 0.002048
14297.25000 0.002024
14298.42969 0.002001
14299.61035 0.001977
14300.79004 0.001962
14301.96973 0.00195
14303.16016 0.001939
14304.33984 0.001927
14305.51953 0.001912
14306.70020 0.001891
14307.88965 0.001871
14309.07031 0.00185
14310.25000 0.001831
14311.44043 0.001814
14312.62012 0.001797
14313.79980 0.001781
14314.99023 0.001764
14316.16992 0.001747
14317.34961 0.001731
14318.54004 0.001714
14319.71973 0.001697
14320.91016 0.00168
14322.08984 0.001664
14323.26953 0.001647
14324.45996 0.00163
14325.63965 0.001614
14326.83008 0.001599
14328.00977 0.001584
14329.20020 0.001569
14330.37988 0.001555
14331.57031 0.001542
14332.75000 0.001528
14333.94043 0.001515
14335.12012 0.001503
14336.30957 0.001491
14337.49023 0.00148
14338.67969 0.001469
14339.86035 0.001458
14341.04980 0.001442
14342.23047 0.001426
14343.41992 0.001409
14344.59961 0.001393
14345.79004 0.001377
14346.98047 0.001362
14348.16016 0.001346
14349.34961 0.001331
14350.54004 0.001321
14351.71973 0.001318
14352.91016 0.001315
14354.09961 0.001312
14355.28027 0.001307
14356.46973 0.001293
14357.66016 0.001279
14358.83984 0.001265
14360.03027 0.001251
14361.21973 0.001236
14362.41016 0.001221
14363.58984 0.001207
14364.78027 0.001192
14365.96973 0.001178
14367.16016 0.001164
14368.33984 0.00115
14369.53027 0.001136
14370.71973 0.001126
14371.91016 0.001117
14373.09961 0.001108
14374.28027 0.001099
14375.46973 0.001091
14376.66016 0.001083
14377.84961 0.001074
14379.04004 0.001066
14380.23047 0.001057
14381.41992 0.001044
14382.61035 0.001031
14383.79004 0.001018
14384.98047 0.001006
14386.16992 0.000995
14387.36035 0.000984
14388.54980 0.000973
14389.74023 0.000963
14390.92969 0.000951
14392.12012 0.000939
14393.30957 0.000927
14394.50000 0.000915
14395.69043 0.000909
14396.87988 0.000908
14398.07031 0.000906
14399.25977 0.000905
14400.45020 0.000901
14401.63965 0.000891
14402.83008 0.000882
14404.03027 0.000873
14405.21973 0.000863
14406.41016 0.000851
14407.59961 0.000839
14408.79004 0.000826
14409.98047 0.000814
14411.16992 0.000807
14412.36035 0.000799
14413.55957 0.000791
14414.75000 0.000783
14415.94043 0.000777
14417.12988 0.000772
14418.32031 0.000766
14419.50977 0.000761
14420.70996 0.000753
14421.90039 0.000744
14423.08984 0.000735
14424.28027 0.000727
14425.48047 0.000718
14426.66992 0.00071
14427.86035 0.000701
14429.05957 0.000693
14430.25000 0.000685
14431.44043 0.000679
14432.62988 0.000673
14433.83008 0.000667
14435.01953 0.000661
14436.20996 0.000663
14437.41016 0.000665
14438.59961 0.000668
14439.79980 0.00067
14440.99023 0.000658
14442.17969 0.000642
14443.37988 0.000627
14444.57031 0.000611
14445.76953 0.000601
14446.95996 0.000594
14448.16016 0.000587
14449.34961 0.00058
14450.54004 0.000574
14451.74023 0.000569
14452.92969 0.000564
14454.12988 0.000559
14455.32031 0.000554
14456.51953 0.00055
14457.70996 0.000545
14458.91016 0.000541
14460.11035 0.000537
14461.29980 0.000534
14462.50000 0.00053
14463.69043 0.000527
14464.88965 0.000524
14466.08008 0.000522
14467.28027 0.00052
14468.48047 0.000517
14469.66992 0.000515
14470.87012 0.000513
14472.07031 0.000512
14473.25977 0.00051
14474.45996 0.000509
14475.66016 0.000499
14476.84961 0.000483
14478.04980 0.000466
14479.25000 0.00045
14480.44043 0.000439
14481.63965 0.000438
14482.83984 0.000436
14484.04004 0.000435
14485.23047 0.000433
14486.42969 0.000428
14487.62988 0.000423
14488.83008 0.000419
14490.01953 0.000414
14491.21973 0.000413
14492.41992 0.000413
14493.62012 0.000412
14494.82031 0.000412
14496.00977 0.000406
14497.20996 0.0004
15946.93066 0.0
