# %ECSV 0.9
# ---
# datatype:
# - {name: wavelength, unit: Angstrom, datatype: float32}
# - {name: response, datatype: float32}
# meta: !!omap
# - {band_name: F850LP}
# - {group_name: WFC3_UVIS1}
wavelength response
7389.13525 0.0
8210.15039 0.0004
8211.55469 0.000413
8212.95996 0.000428
8214.36523 0.000445
8215.77148 0.000463
8217.17676 0.00048
8218.58203 0.000497
8219.98828 0.000514
8221.39453 0.000531
8222.80176 0.00055
8224.20801 0.000572
8225.61523 0.000593
8227.02246 0.000615
8228.43066 0.000636
8229.83789 0.000657
8231.24609 0.000679
8232.65430 0.000701
8234.06348 0.000727
8235.47168 0.000753
8236.88086 0.000779
8238.29004 0.000805
8239.70020 0.00083
8241.10938 0.000856
8242.51953 0.000883
8243.92969 0.000916
8245.34082 0.000948
8246.75098 0.000981
8248.16211 0.001013
8249.57324 0.001045
8250.98438 0.001078
8252.39648 0.001111
8253.80859 0.001152
8255.22070 0.001194
8256.63281 0.001236
8258.04590 0.001277
8259.45898 0.001319
8260.87207 0.00136
8262.28516 0.001402
8263.69922 0.001453
8265.11230 0.001505
8266.52637 0.001556
8267.94141 0.001608
8269.35547 0.001659
8270.77148 0.001711
8272.18555 0.001762
8273.60059 0.001825
8275.01660 0.001889
8276.43262 0.001952
8277.84863 0.002016
8279.26465 0.002079
8280.68164 0.002143
8282.09766 0.002206
8283.51465 0.002279
8284.93262 0.002354
8286.34961 0.002429
8287.76758 0.002504
8289.18555 0.002579
8290.60352 0.002654
8292.02246 0.002729
8293.44141 0.002819
8294.86035 0.002913
8296.27930 0.003006
8297.69824 0.003099
8299.11816 0.003193
8300.53809 0.003286
8301.95801 0.003379
8303.37891 0.003487
8304.79980 0.0036
8306.22070 0.003712
8307.64160 0.003825
8309.06152 0.003937
8310.48438 0.004049
8311.90625 0.004162
8313.32812 0.00429
8314.75098 0.004425
8316.17383 0.00456
8317.59668 0.004694
8319.01953 0.004828
8320.44238 0.004962
8321.86621 0.005095
8323.29004 0.005247
8324.71387 0.005406
8326.13867 0.005564
8327.56348 0.005723
8328.98828 0.005881
8330.41309 0.006039
8331.83789 0.006196
8333.26367 0.006375
8334.68945 0.006562
8336.11523 0.006749
8337.54199 0.006936
8338.96875 0.007123
8340.39648 0.00731
8341.82227 0.007497
8343.24902 0.007703
8344.67676 0.007918
8346.10352 0.008134
8347.53223 0.008349
8348.96094 0.008563
8350.38965 0.008778
8351.81836 0.008991
8353.24707 0.009228
8354.67578 0.009476
8356.10547 0.009724
8357.53516 0.009972
8358.96484 0.010219
8360.39648 0.010466
8361.82617 0.010713
8363.25684 0.01098
8364.68652 0.011258
8366.11816 0.011535
8367.54980 0.011812
8368.98145 0.012088
8370.41309 0.012364
8371.84570 0.01264
8373.27832 0.012935
8374.71094 0.01324
8376.14355 0.013544
8377.57617 0.013847
8379.00977 0.014151
8380.44336 0.014454
8381.87695 0.014758
8383.31152 0.015086
8384.74609 0.015423
8386.18066 0.015759
8387.61523 0.016095
8389.04980 0.01643
8390.48535 0.016765
8391.92090 0.017097
8393.35742 0.017462
8394.79297 0.017837
8396.22852 0.018212
8397.66602 0.018586
8399.10254 0.01896
8400.54004 0.019335
8401.97656 0.019709
8403.41406 0.020109
8404.85254 0.020517
8406.29004 0.020924
8407.72852 0.021331
8409.16699 0.021737
8410.60547 0.022143
8412.04492 0.022552
8413.48438 0.022989
8414.92383 0.023432
8416.36328 0.023874
8417.80371 0.024316
8419.24316 0.024758
8420.68457 0.025198
8422.12500 0.025635
8423.56543 0.026098
8425.00684 0.026566
8426.44824 0.027032
8427.89062 0.027499
8429.33203 0.027964
8430.77441 0.028431
8432.21680 0.028899
8433.65918 0.029423
8435.10254 0.029952
8436.54590 0.03048
8437.98926 0.031007
8439.43262 0.031533
8440.87695 0.032059
8442.32129 0.032585
8443.76562 0.0331
8445.20996 0.033615
8446.65527 0.034129
8448.10059 0.034643
8449.54590 0.035156
8450.99121 0.035672
8452.43652 0.036191
8453.88379 0.036723
8455.33008 0.037255
8456.77637 0.037786
8458.22363 0.038317
8459.67090 0.038848
8461.11816 0.039373
8462.56543 0.039899
8464.01367 0.040434
8465.46191 0.040969
8466.91016 0.041503
8468.35840 0.042036
8469.80762 0.042568
8471.25684 0.0431
8472.70605 0.043635
8474.15527 0.04418
8475.60547 0.044724
8477.05566 0.045268
8478.50586 0.04581
8479.95703 0.046353
8481.40723 0.046894
8482.85840 0.047439
8484.31055 0.047989
8485.76172 0.048538
8487.21387 0.049087
8488.66602 0.049635
8490.11816 0.050182
8491.57031 0.050736
8493.02344 0.051286
8494.47656 0.051833
8495.92969 0.052378
8497.38379 0.052924
8498.83789 0.053469
8500.29199 0.05401
8501.74609 0.054536
8503.20020 0.055063
8504.65527 0.055591
8506.11035 0.056117
8507.56543 0.056643
8509.02148 0.057168
8510.47754 0.057693
8511.93359 0.058216
8513.38965 0.058725
8514.84668 0.059228
8516.30273 0.059729
8517.76074 0.060231
8519.21777 0.060731
8520.67480 0.06123
8522.13281 0.061729
8523.59082 0.062228
8525.04980 0.062727
8526.50781 0.063225
8527.96680 0.063722
8529.42578 0.064218
8530.88574 0.06472
8532.34473 0.065223
8533.80469 0.065706
8535.26465 0.066187
8536.72559 0.066669
8538.18555 0.067149
8539.64648 0.067629
8541.10742 0.068101
8542.56934 0.06857
8544.03027 0.069039
8545.49219 0.069508
8546.95410 0.069976
8548.41699 0.070443
8549.87988 0.070909
8551.34277 0.071374
8552.80566 0.071828
8554.26855 0.072257
8555.73242 0.072685
8557.19629 0.073112
8558.66016 0.073538
8560.12500 0.073964
8561.58887 0.074389
8563.05371 0.074812
8564.51953 0.075233
8565.98438 0.075653
8567.45020 0.076072
8568.91602 0.076491
8570.38184 0.076912
8571.84863 0.07734
8573.31543 0.077748
8574.78223 0.078145
8576.24902 0.078542
8577.71582 0.078938
8579.18359 0.079334
8580.65137 0.079724
8582.12012 0.080108
8583.58789 0.080467
8585.05664 0.080821
8586.52539 0.081175
8587.99512 0.081528
8589.46387 0.08188
8590.93359 0.082231
8592.40332 0.082582
8593.87402 0.082931
8595.34375 0.083279
8596.81445 0.083627
8598.28516 0.083974
8599.75684 0.08432
8601.22754 0.084665
8602.69922 0.085002
8604.17188 0.085313
8605.64355 0.085623
8607.11621 0.085932
8608.58887 0.086241
8610.06152 0.086549
8611.53418 0.086869
8613.00781 0.087186
8614.48145 0.087502
8615.95605 0.087817
8617.42969 0.088131
8618.90430 0.088445
8620.37891 0.088755
8621.85352 0.089055
8623.32910 0.089347
8624.80469 0.089634
8626.28027 0.08992
8627.75586 0.090205
8629.23242 0.09049
8630.70801 0.090787
8632.18457 0.091097
8633.66211 0.091368
8635.13867 0.091631
8636.61621 0.091895
8638.09375 0.092158
8639.57227 0.09242
8641.05078 0.092683
8642.52832 0.092947
8644.00781 0.093235
8645.48633 0.093522
8646.96582 0.093809
8648.44531 0.094096
8649.92480 0.094382
8651.40430 0.094668
8652.88477 0.094934
8654.36523 0.095163
8655.84570 0.095391
8657.32715 0.09562
8658.80859 0.095848
8660.29004 0.096078
8661.77148 0.096318
8663.25391 0.096564
8664.73535 0.096812
8666.21777 0.09706
8667.70117 0.097308
8669.18359 0.097556
8670.66699 0.097797
8672.15039 0.09803
8673.63477 0.098242
8675.11816 0.098449
8676.60254 0.098655
8678.08691 0.098862
8679.57227 0.099068
8681.05664 0.099274
8682.54199 0.099475
8684.02832 0.09964
8685.51367 0.099805
8687.00000 0.099969
8688.48633 0.100133
8689.97266 0.100297
8691.45898 0.10046
8692.94629 0.100626
8694.43359 0.100795
8695.92090 0.100964
8697.40918 0.101132
8698.89746 0.101301
8700.38574 0.101468
8701.87402 0.101636
8703.36328 0.101788
8704.85254 0.101933
8706.34180 0.102077
8707.83105 0.102221
8709.32129 0.102364
8710.81055 0.102515
8712.30176 0.102672
8713.79199 0.102855
8715.28320 0.10304
8716.77441 0.103223
8718.26562 0.103407
8719.75684 0.10359
8721.24902 0.10376
8722.74121 0.103916
8724.23340 0.104033
8725.72656 0.104149
8727.21875 0.104265
8728.71191 0.104381
8730.20605 0.104496
8731.69922 0.104611
8733.19336 0.104711
8734.68848 0.104797
8736.18164 0.104883
8737.67676 0.104969
8739.17188 0.105054
8740.66699 0.105139
8742.16211 0.105224
8743.65820 0.105321
8745.15430 0.105419
8746.65039 0.105518
8748.14648 0.105616
8749.64355 0.105714
8751.14062 0.105811
8752.63770 0.105908
8754.13574 0.106003
8755.63281 0.106098
8757.13086 0.106193
8758.62988 0.106287
8760.12793 0.106382
8761.62695 0.106491
8763.12598 0.106592
8764.62500 0.106682
8766.12500 0.106772
8767.62500 0.106862
8769.12500 0.106952
8770.62500 0.107035
8772.12598 0.107109
8773.62695 0.107163
8775.12793 0.107213
8776.62891 0.107261
8778.13086 0.10731
8779.63281 0.107359
8781.13477 0.107407
8782.63770 0.107453
8784.13965 0.107487
8785.64258 0.107521
8787.14648 0.107555
8788.64941 0.107589
8790.15332 0.107622
8791.65723 0.107655
8793.16113 0.107675
8794.66602 0.107682
8796.17090 0.107689
8797.67578 0.107696
8799.18066 0.107703
8800.68652 0.1077
8802.19238 0.107685
8803.69824 0.107723
8805.20410 0.10777
8806.71094 0.107816
8808.21777 0.107863
8809.72461 0.107909
8811.23145 0.107967
8812.73926 0.108024
8814.24707 0.108067
8815.75488 0.108109
8817.26367 0.108151
8818.77246 0.108193
8820.28125 0.108232
8821.79004 0.108258
8823.29980 0.108261
8824.80957 0.108248
8826.31934 0.108235
8827.82910 0.108222
8829.33984 0.108209
8830.85059 0.10821
8832.36133 0.108223
8833.87207 0.108208
8835.38379 0.108192
8836.89648 0.108175
8838.40723 0.108158
8839.91992 0.108141
8841.43164 0.108124
8842.94434 0.108103
8844.45801 0.108077
8845.97070 0.10805
8847.48438 0.108024
8848.99805 0.107997
8850.51172 0.107969
8852.02637 0.107942
8853.54102 0.107962
8855.05566 0.108
8856.57129 0.108037
8858.08594 0.108075
8859.60156 0.108111
8861.11719 0.108148
8862.63379 0.108177
8864.15039 0.108165
8865.66699 0.108152
8867.18359 0.108139
8868.70020 0.108126
8870.21777 0.108114
8871.73535 0.108116
8873.25391 0.108116
8874.77148 0.108113
8876.29004 0.10811
8877.80859 0.108107
8879.32812 0.108104
8880.84668 0.108091
8882.36621 0.108072
8883.88574 0.10806
8885.40625 0.108049
8886.92676 0.108037
8888.44727 0.108025
8889.96777 0.108013
8891.48828 0.108001
8893.00977 0.107976
8894.53125 0.10793
8896.05371 0.107883
8897.57520 0.107837
8899.09766 0.10779
8900.62012 0.107743
8902.14355 0.107695
8903.66602 0.107684
8905.18945 0.107681
8906.71289 0.107678
8908.23730 0.107675
8909.76172 0.107671
8911.28613 0.107667
8912.81055 0.107669
8914.33496 0.10769
8915.86035 0.107711
8917.38574 0.107732
8918.91211 0.107752
8920.43848 0.107772
8921.96387 0.107791
8923.49023 0.107707
8925.01758 0.107575
8926.54395 0.107443
8928.07129 0.10731
8929.59863 0.107178
8931.12695 0.107045
8932.65527 0.106921
8934.18359 0.106857
8935.71191 0.106793
8937.24023 0.106729
8938.76953 0.106664
8940.29883 0.106602
8941.82910 0.106553
8943.35840 0.106491
8944.88867 0.106421
8946.41895 0.10635
8947.95020 0.106279
8949.48047 0.106208
8951.01172 0.106127
8952.54395 0.106046
8954.07520 0.106063
8955.60742 0.10608
8957.13965 0.106097
8958.67188 0.106114
8960.20508 0.10613
8961.73828 0.106146
8963.27148 0.106098
8964.80469 0.105993
8966.33887 0.105888
8967.87305 0.105783
8969.40723 0.105678
8970.94141 0.105573
8972.47656 0.105468
8974.01172 0.105458
8975.54688 0.105448
8977.08301 0.105438
8978.61816 0.105427
8980.15527 0.105416
8981.69141 0.105404
8983.22754 0.105349
8984.76465 0.10525
8986.30176 0.10515
8987.83984 0.10505
8989.37793 0.10495
8990.91602 0.10485
8992.45410 0.10475
8993.99219 0.104687
8995.53125 0.104623
8997.07031 0.10456
8998.60938 0.104496
9000.14941 0.10443
9001.68945 0.104345
9003.22852 0.104244
9004.76953 0.104127
9006.31055 0.104011
9007.85156 0.103894
9009.39258 0.103777
9010.93359 0.103669
9012.47559 0.103568
9014.01758 0.103542
9015.55957 0.103516
9017.10254 0.103489
9018.64648 0.103462
9020.18848 0.103433
9021.73145 0.10339
9023.27539 0.103336
9024.81934 0.10327
9026.36328 0.103204
9027.90723 0.103138
9029.45215 0.103071
9030.99707 0.103011
9032.54199 0.102951
9034.08789 0.102813
9035.63281 0.102675
9037.17871 0.102537
9038.72559 0.102398
9040.27148 0.10226
9041.81836 0.102122
9043.36523 0.101994
9044.91309 0.101875
9046.45996 0.101755
9048.00781 0.101635
9049.55664 0.101515
9051.10352 0.101396
9052.65332 0.101279
9054.20215 0.101187
9055.75098 0.101095
9057.30078 0.101003
9058.85059 0.10091
9060.40039 0.100818
9061.95020 0.100725
9063.50098 0.100632
9065.05176 0.100538
9066.60254 0.100443
9068.15332 0.100349
9069.70508 0.100254
9071.25684 0.100159
9072.80859 0.100063
9074.36133 0.099957
9075.91406 0.099851
9077.46680 0.099746
9079.01953 0.09964
9080.57324 0.099539
9082.12695 0.099448
9083.68066 0.099373
9085.23535 0.099302
9086.78906 0.099231
9088.34375 0.09916
9089.89941 0.099089
9091.45410 0.099003
9093.00977 0.098915
9094.56543 0.098822
9096.12109 0.098729
9097.67773 0.098636
9099.23438 0.098543
9100.79102 0.098449
9102.34863 0.098356
9103.90527 0.098238
9105.46289 0.098117
9107.02148 0.097995
9108.57910 0.097874
9110.13770 0.097753
9111.69629 0.097632
9113.25586 0.097518
9114.81445 0.097412
9116.37402 0.097305
9117.93359 0.097199
9119.49414 0.097092
9121.05469 0.096986
9122.61523 0.096878
9124.17578 0.096762
9125.73633 0.096646
9127.29785 0.09653
9128.85938 0.096414
9130.42188 0.096297
9131.98340 0.096181
9133.54590 0.096058
9135.10938 0.095932
9136.67188 0.095806
9138.23535 0.09568
9139.79883 0.095553
9141.36230 0.095427
9142.92676 0.095308
9144.49121 0.095208
9146.05566 0.095108
9147.62012 0.095007
9149.18555 0.094907
9150.75098 0.094806
9152.31641 0.094705
9153.88184 0.094577
9155.44824 0.094446
9157.01465 0.094314
9158.58203 0.094182
9160.14844 0.09405
9161.71582 0.093918
9163.28320 0.093803
9164.85156 0.093706
9166.41895 0.093608
9167.98730 0.093511
9169.55566 0.093413
9171.12500 0.093315
9172.69434 0.093213
9174.26367 0.093083
9175.83301 0.092953
9177.40332 0.092823
9178.97363 0.092693
9180.54395 0.092567
9182.11426 0.092451
9183.68555 0.092344
9185.25684 0.092241
9186.82812 0.092137
9188.40039 0.092033
9189.97266 0.091928
9191.54492 0.09181
9193.11719 0.091687
9194.69043 0.091556
9196.26367 0.091425
9197.83691 0.091294
9199.41016 0.091163
9200.98438 0.091026
9202.55859 0.090886
9204.13281 0.090763
9205.70801 0.09064
9207.28320 0.090516
9208.85840 0.090392
9210.43359 0.090268
9212.00977 0.090144
9213.58594 0.090036
9215.16211 0.089937
9216.73926 0.089837
9218.31543 0.089737
9219.89258 0.089637
9221.47070 0.089536
9223.04785 0.089418
9224.62598 0.089263
9226.20410 0.089108
9227.78320 0.088953
9229.36230 0.088798
9230.94141 0.088647
9232.52148 0.088498
9234.09961 0.088372
9235.67969 0.088245
9237.25977 0.088119
9238.84082 0.087992
9240.42090 0.087865
9242.00195 0.087739
9243.58301 0.087596
9245.16504 0.087444
9246.74707 0.087293
9248.32910 0.087142
9249.91113 0.08699
9251.49414 0.086839
9253.07715 0.0867
9254.66016 0.086586
9256.24316 0.086471
9257.82715 0.086356
9259.41113 0.086241
9260.99512 0.086126
9262.58008 0.08601
9264.16406 0.085874
9265.74902 0.085737
9267.33496 0.0856
9268.91992 0.085463
9270.50586 0.085326
9272.09277 0.085189
9273.67871 0.085052
9275.26562 0.084914
9276.85254 0.084777
9278.43945 0.08464
9280.02734 0.084502
9281.61523 0.084364
9283.20312 0.084227
9284.79102 0.08409
9286.37988 0.083952
9287.96875 0.083815
9289.55762 0.083677
9291.14746 0.08354
9292.73633 0.083401
9294.32715 0.083259
9295.91699 0.083116
9297.50781 0.082974
9299.09863 0.082831
9300.68945 0.082694
9302.28027 0.082564
9303.87207 0.082446
9305.46387 0.08233
9307.05566 0.082214
9308.64844 0.082098
9310.24121 0.081979
9311.83398 0.081849
9313.42676 0.081712
9315.02148 0.081568
9316.61426 0.081424
9318.20801 0.08128
9319.80273 0.081135
9321.39746 0.080991
9322.99219 0.080847
9324.58691 0.080705
9326.18262 0.080563
9327.77832 0.080421
9329.37402 0.080279
9330.97070 0.080137
9332.56738 0.079994
9334.16406 0.079853
9335.76074 0.079711
9337.35840 0.079569
9338.95605 0.079427
9340.55371 0.079285
9342.15137 0.079143
9343.75000 0.078994
9345.34863 0.078843
9346.94727 0.078692
9348.54688 0.07854
9350.14648 0.078389
9351.74609 0.078237
9353.34570 0.07809
9354.94629 0.077947
9356.54688 0.077804
9358.14746 0.077661
9359.74902 0.077517
9361.35059 0.077374
9362.95215 0.077235
9364.55371 0.077113
9366.15625 0.076991
9367.75879 0.076868
9369.36133 0.076745
9370.96484 0.076622
9372.56738 0.076498
9374.17188 0.07634
9375.77539 0.076182
9377.37988 0.076023
9378.98340 0.075865
9380.58887 0.075706
9382.19336 0.075547
9383.79883 0.075395
9385.40430 0.075245
9387.00977 0.075094
9388.61621 0.074944
9390.22266 0.074793
9391.82910 0.074642
9393.43555 0.074492
9395.04297 0.074342
9396.65039 0.074191
9398.25781 0.074041
9399.86621 0.07389
9401.47461 0.073727
9403.08301 0.073567
9404.69141 0.073414
9406.30078 0.07326
9407.91016 0.073107
9409.51953 0.072953
9411.12988 0.072799
9412.74023 0.072643
9414.35059 0.072469
9415.96094 0.072296
9417.57227 0.072122
9419.18359 0.071948
9420.79492 0.071774
9422.40723 0.0716
9424.01953 0.071432
9425.63184 0.071266
9427.24414 0.071099
9428.85742 0.070932
9430.47070 0.070767
9432.08398 0.070607
9433.69727 0.07045
9435.31152 0.070295
9436.92578 0.070139
9438.54102 0.069983
9440.15527 0.069827
9441.77148 0.069671
9443.38574 0.069515
9445.00195 0.069361
9446.61816 0.069207
9448.23438 0.069052
9449.85059 0.068898
9451.46777 0.068743
9453.08496 0.068581
9454.70215 0.068406
9456.31934 0.06823
9457.93848 0.068055
9459.55566 0.067879
9461.17383 0.067703
9462.79297 0.067532
9464.41211 0.06739
9466.03125 0.067248
9467.65137 0.067107
9469.27148 0.066964
9470.89062 0.066822
9472.51172 0.066679
9474.13184 0.066514
9475.75293 0.066347
9477.37402 0.06618
9478.99609 0.066012
9480.61719 0.065845
9482.23926 0.065677
9483.86230 0.06551
9485.48438 0.065343
9487.10742 0.065176
9488.73047 0.065009
9490.35352 0.064842
9491.97754 0.064674
9493.60156 0.06451
9495.22656 0.064347
9496.85059 0.064185
9498.47559 0.064022
9500.10059 0.063863
9501.72656 0.063765
9503.35156 0.063665
9504.97754 0.063562
9506.60352 0.06346
9508.23047 0.063357
9509.85742 0.063254
9511.48438 0.063151
9513.11230 0.063047
9514.73926 0.062941
9516.36719 0.062835
9517.99609 0.062728
9519.62402 0.062622
9521.25293 0.062515
9522.88184 0.062412
9524.51172 0.062322
9526.14062 0.062233
9527.77148 0.062143
9529.40137 0.062053
9531.03125 0.061964
9532.66211 0.061873
9534.29297 0.061765
9535.92480 0.061656
9537.55566 0.061548
9539.18848 0.061439
9540.81934 0.06133
9542.45215 0.061221
9544.08496 0.06112
9545.71777 0.061019
9547.35059 0.060918
9548.98438 0.060817
9550.61816 0.060716
9552.25195 0.060615
9553.88672 0.06051
9555.52148 0.060405
9557.15625 0.060299
9558.79102 0.060194
9560.42676 0.060088
9562.06152 0.059982
9563.69824 0.059877
9565.33496 0.059773
9566.97168 0.059669
9568.60840 0.059565
9570.24512 0.059461
9571.88281 0.059356
9573.52148 0.059249
9575.15820 0.05914
9576.79688 0.05903
9578.43555 0.058921
9580.07422 0.058811
9581.71289 0.058701
9583.35254 0.058595
9584.99219 0.058495
9586.63184 0.058395
9588.27246 0.058295
9589.91309 0.058195
9591.55371 0.058094
9593.19434 0.057992
9594.83594 0.057884
9596.47754 0.057776
9598.12012 0.057669
9599.76172 0.057561
9601.40430 0.057458
9603.04688 0.057355
9604.69043 0.057248
9606.33301 0.057141
9607.97656 0.057034
9609.62109 0.056926
9611.26465 0.056804
9612.90918 0.056679
9614.55371 0.056562
9616.19922 0.056444
9617.84473 0.056327
9619.49023 0.056209
9621.13574 0.056098
9622.78223 0.05599
9624.42871 0.055876
9626.07520 0.055763
9627.72168 0.055649
9629.36914 0.055535
9631.01660 0.055421
9632.66504 0.055307
9634.31152 0.055192
9635.96094 0.055076
9637.60938 0.054961
9639.25879 0.054845
9640.90820 0.05473
9642.55762 0.054614
9644.20703 0.054507
9645.85742 0.054401
9647.50781 0.054294
9649.15820 0.054187
9650.80957 0.05408
9652.45996 0.053973
9654.11230 0.053856
9655.76367 0.053737
9657.41602 0.053618
9659.06836 0.053499
9660.72070 0.05338
9662.37402 0.053261
9664.02637 0.053146
9665.68066 0.05303
9667.33398 0.052915
9668.98828 0.0528
9670.64258 0.052685
9672.29688 0.052569
9673.95215 0.052458
9675.60645 0.052348
9677.26270 0.052237
9678.91797 0.052127
9680.57422 0.052016
9682.23047 0.051905
9683.88672 0.051791
9685.54395 0.051675
9687.20117 0.051559
9688.85840 0.051443
9690.51660 0.051327
9692.17383 0.051211
9693.83203 0.051089
9695.49121 0.050965
9697.14941 0.050841
9698.80859 0.050717
9700.46875 0.050592
9702.12793 0.050468
9703.78809 0.050349
9705.44824 0.050233
9707.10840 0.050116
9708.76953 0.05
9710.43066 0.049883
9712.09180 0.049767
9713.75391 0.049651
9715.41602 0.049536
9717.07812 0.04942
9718.74023 0.049305
9720.40332 0.049189
9722.06641 0.049074
9723.72852 0.048954
9725.39355 0.048832
9727.05762 0.04871
9728.72168 0.048589
9730.38672 0.048467
9732.05078 0.048345
9733.71582 0.048226
9735.38184 0.048109
9737.04688 0.047991
9738.71289 0.047874
9740.37988 0.047757
9742.04590 0.047639
9743.71289 0.04752
9745.37988 0.047399
9747.04785 0.047278
9748.71484 0.047157
9750.38281 0.047035
9752.05078 0.046914
9753.71973 0.046794
9755.38867 0.046675
9757.05762 0.046555
9758.72656 0.046436
9760.39648 0.046316
9762.06641 0.046197
9763.73730 0.046079
9765.40723 0.045963
9767.07812 0.045846
9768.74902 0.04573
9770.42090 0.045613
9772.09277 0.045496
9773.76465 0.045372
9775.43652 0.045245
9777.10938 0.045117
9778.78223 0.04499
9780.45508 0.044862
9782.12793 0.044734
9783.80176 0.044612
9785.47559 0.044492
9787.15039 0.044371
9788.82520 0.044251
9790.50000 0.044131
9792.17480 0.04401
9793.84961 0.043887
9795.52539 0.043762
9797.20215 0.043637
9798.87793 0.043512
9800.55469 0.043386
9802.23145 0.043257
9803.90820 0.043129
9805.58594 0.043002
9807.26367 0.042875
9808.94141 0.042747
9810.62012 0.04262
9812.29785 0.042492
9813.97754 0.042366
9815.65625 0.042239
9817.33594 0.042113
9819.01562 0.041986
9820.69531 0.04186
9822.37598 0.041733
9824.05566 0.041604
9825.73730 0.041474
9827.41797 0.041343
9829.09961 0.041213
9830.78125 0.041084
9832.46289 0.040957
9834.14648 0.04083
9835.82812 0.040704
9837.51074 0.040577
9839.19434 0.040451
9840.87793 0.040324
9842.56152 0.040197
9844.24512 0.040076
9845.92969 0.039955
9847.61426 0.039833
9849.29883 0.039712
9850.98438 0.039591
9852.66992 0.039469
9854.35547 0.039339
9856.04102 0.039208
9857.72754 0.039078
9859.41406 0.038947
9861.10156 0.038816
9862.78809 0.038686
9864.47559 0.038558
9866.16309 0.038431
9867.85156 0.038304
9869.54004 0.038176
9871.22852 0.038049
9872.91699 0.037921
9874.60645 0.037791
9876.29590 0.037661
9877.98633 0.037531
9879.67578 0.037401
9881.36621 0.03727
9883.05664 0.037141
9884.74805 0.037016
9886.43945 0.03689
9888.13086 0.036765
9889.82227 0.036639
9891.51465 0.036514
9893.20703 0.036386
9894.89941 0.036255
9896.59277 0.036123
9898.28613 0.035991
9899.97852 0.035859
9901.67285 0.035721
9903.36719 0.035582
9905.06152 0.035442
9906.75684 0.035303
9908.45117 0.035163
9910.14648 0.035024
9911.84277 0.03489
9913.53809 0.034759
9915.23438 0.034629
9916.93066 0.034499
9918.62793 0.034369
9920.32422 0.034238
9922.02148 0.034108
9923.71973 0.033976
9925.41699 0.033843
9927.11523 0.033711
9928.81445 0.033578
9930.51270 0.033445
9932.21191 0.033312
9933.91113 0.03318
9935.61035 0.033049
9937.31055 0.032918
9939.01074 0.032786
9940.71191 0.032655
9942.41211 0.032524
9944.11328 0.032394
9945.81445 0.032265
9947.51660 0.032135
9949.21875 0.032006
9950.92090 0.031876
9952.62305 0.031747
9954.32617 0.031612
9956.02930 0.031477
9957.73242 0.031343
9959.43652 0.031208
9961.14062 0.031073
9962.84473 0.030938
9964.54883 0.030806
9966.25391 0.030674
9967.95898 0.030542
9969.66504 0.03041
9971.37012 0.030278
9973.07617 0.030145
9974.78320 0.030014
9976.48926 0.029883
9978.19629 0.029752
9979.90332 0.029621
9981.61133 0.029489
9983.31934 0.029357
9985.02734 0.029224
9986.73535 0.02909
9988.44434 0.028956
9990.15332 0.028823
9991.86230 0.028689
9993.57227 0.028554
9995.28125 0.028419
9996.99219 0.028284
9998.70215 0.028148
10000.41016 0.028018
10002.12012 0.027902
10003.83008 0.027787
10005.54980 0.027673
10007.25977 0.027558
10008.96973 0.027443
10010.67969 0.027329
10012.40039 0.027214
10014.11035 0.027101
10015.82031 0.026989
10017.54004 0.026877
10019.25000 0.026764
10020.95996 0.026652
10022.67969 0.026539
10024.38965 0.026421
10026.11035 0.026303
10027.82031 0.026185
10029.54004 0.026067
10031.25977 0.025946
10032.96973 0.025823
10034.69043 0.025702
10036.41016 0.025582
10038.12012 0.025462
10039.83984 0.025342
10041.55957 0.025225
10043.28027 0.02511
10045.00000 0.024997
10046.70996 0.024883
10048.42969 0.02477
10050.15039 0.024656
10051.87012 0.024542
10053.58984 0.024427
10055.30957 0.024309
10057.03027 0.024192
10058.75000 0.024074
10060.46973 0.023957
10062.19043 0.02384
10063.91992 0.023724
10065.63965 0.023609
10067.36035 0.023494
10069.08008 0.023379
10070.80957 0.023264
10072.53027 0.023149
10074.25000 0.023034
10075.98047 0.02292
10077.70020 0.022806
10079.41992 0.022691
10081.15039 0.022577
10082.87012 0.022462
10084.59961 0.022346
10086.32031 0.022229
10088.04980 0.022113
10089.78027 0.021997
10091.50000 0.02188
10093.23047 0.021764
10094.95996 0.021647
10096.67969 0.02153
10098.41016 0.021413
10100.13965 0.021296
10101.87012 0.021179
10103.58984 0.021063
10105.32031 0.020946
10107.04980 0.020829
10108.78027 0.020712
10110.50977 0.020595
10112.24023 0.020478
10113.96973 0.020363
10115.70020 0.020248
10117.42969 0.020134
10119.16016 0.020019
10120.88965 0.019902
10122.62988 0.019783
10124.36035 0.019662
10126.08984 0.01954
10127.82031 0.019418
10129.54980 0.019296
10131.29004 0.019177
10133.01953 0.019059
10134.75000 0.018942
10136.49023 0.018826
10138.21973 0.018709
10139.95996 0.018592
10141.69043 0.018475
10143.42969 0.01836
10145.16016 0.018247
10146.90039 0.018134
10148.63965 0.018021
10150.37012 0.017908
10152.11035 0.017794
10153.84961 0.017677
10155.58008 0.017557
10157.32031 0.017437
10159.05957 0.017317
10160.79980 0.017197
10162.54004 0.017077
10164.26953 0.016962
10166.00977 0.016847
10167.75000 0.016731
10169.49023 0.016616
10171.23047 0.016501
10172.96973 0.016386
10174.70996 0.01627
10176.45020 0.016153
10178.19043 0.016037
10179.94043 0.015921
10181.67969 0.015805
10183.41992 0.015688
10185.16016 0.01557
10186.90039 0.015453
10188.65039 0.015336
10190.38965 0.015218
10192.12988 0.015101
10193.87988 0.014984
10195.62012 0.014867
10197.37012 0.01475
10199.11035 0.014634
10200.86035 0.014541
10202.59961 0.014472
10204.34961 0.014404
10206.08984 0.014336
10207.83984 0.014268
10209.58984 0.0142
10211.33008 0.014135
10213.08008 0.014069
10214.83008 0.014003
10216.58008 0.013936
10218.32031 0.013869
10220.07031 0.013803
10221.82031 0.013736
10223.57031 0.01367
10225.32031 0.013605
10227.07031 0.013539
10228.82031 0.013474
10230.57031 0.013409
10232.32031 0.013344
10234.07031 0.013278
10235.82031 0.013212
10237.57031 0.013147
10239.32031 0.013081
10241.07031 0.013016
10242.83008 0.01295
10244.58008 0.012884
10246.33008 0.012818
10248.08008 0.012752
10249.83984 0.012687
10251.58984 0.012621
10253.34961 0.012555
10255.09961 0.012491
10256.84961 0.012427
10258.61035 0.012362
10260.36035 0.012298
10262.12012 0.012234
10263.87988 0.012168
10265.62988 0.012101
10267.38965 0.012035
10269.15039 0.011968
10270.90039 0.011901
10272.66016 0.011832
10274.41992 0.011763
10276.16992 0.011695
10277.92969 0.011626
10279.69043 0.011558
10281.45020 0.011491
10283.20996 0.011425
10284.96973 0.01136
10286.73047 0.011295
10288.49023 0.01123
10290.25000 0.011165
10292.00977 0.0111
10293.76953 0.011035
10295.53027 0.010968
10297.29004 0.010902
10299.04980 0.010836
10300.82031 0.01077
10302.58008 0.010704
10304.33984 0.010638
10306.11035 0.010571
10307.87012 0.010505
10309.62988 0.010439
10311.40039 0.010373
10313.16016 0.010307
10314.91992 0.010242
10316.69043 0.010176
10318.45996 0.010111
10320.21973 0.010045
10321.99023 0.00998
10323.75000 0.009914
10325.51953 0.009849
10327.29004 0.009784
10329.04980 0.009718
10330.82031 0.009653
10332.58984 0.009588
10334.34961 0.009522
10336.12012 0.009457
10337.88965 0.009392
10339.66016 0.009326
10341.42969 0.00926
10343.20020 0.009192
10344.96973 0.009123
10346.74023 0.009055
10348.50977 0.008986
10350.28027 0.008917
10352.04980 0.008851
10353.82031 0.008785
10355.58984 0.00872
10357.36035 0.008655
10359.13965 0.008589
10360.91016 0.008524
10362.67969 0.008459
10364.45020 0.008393
10366.23047 0.008327
10368.00000 0.008261
10369.78027 0.008196
10371.54980 0.00813
10373.32031 0.008064
10375.09961 0.007999
10376.87012 0.007934
10378.65039 0.007869
10380.41992 0.007804
10382.20020 0.007739
10383.98047 0.007673
10385.75000 0.007607
10387.53027 0.007541
10389.30957 0.007475
10391.08984 0.007409
10392.86035 0.007342
10394.63965 0.007276
10396.41992 0.00721
10398.20020 0.007144
10399.98047 0.007078
10401.75977 0.007042
10403.54004 0.007006
10405.32031 0.006971
10407.09961 0.006936
10408.87988 0.006901
10410.66016 0.006867
10412.44043 0.006833
10414.21973 0.006799
10416.00000 0.006765
10417.79004 0.006731
10419.57031 0.006698
10421.34961 0.006664
10423.12988 0.00663
10424.91992 0.006597
10426.70020 0.006563
10428.48047 0.00653
10430.26953 0.006497
10432.04980 0.006463
10433.83984 0.00643
10435.62012 0.006396
10437.41016 0.006362
10439.19043 0.006329
10440.98047 0.006295
10442.76953 0.006261
10444.54980 0.006227
10446.33984 0.006194
10448.12988 0.00616
10449.91992 0.006126
10451.70020 0.006091
10453.49023 0.006056
10455.28027 0.006021
10457.07031 0.005986
10458.86035 0.005951
10460.65039 0.005916
10462.44043 0.005882
10464.23047 0.005849
10466.01953 0.005815
10467.80957 0.005781
10469.59961 0.005747
10471.38965 0.005713
10473.17969 0.005679
10474.96973 0.005646
10476.76953 0.005612
10478.55957 0.005578
10480.34961 0.005544
10482.15039 0.00551
10483.94043 0.005477
10485.73047 0.005443
10487.53027 0.00541
10489.32031 0.005377
10491.12012 0.005344
10492.91016 0.005311
10494.70996 0.005277
10496.50000 0.005243
10498.29980 0.005209
10500.08984 0.005176
10501.88965 0.005141
10503.69043 0.005106
10505.48047 0.005071
10507.28027 0.005036
10509.08008 0.005001
10510.87988 0.004967
10512.67969 0.004933
10514.46973 0.004899
10516.26953 0.004866
10518.07031 0.004832
10519.87012 0.004798
10521.66992 0.004764
10523.46973 0.004731
10525.26953 0.004698
10527.07031 0.004664
10528.87988 0.004631
10530.67969 0.004598
10532.48047 0.004565
10534.28027 0.004531
10536.08008 0.004497
10537.87988 0.004463
10539.69043 0.00443
10541.49023 0.004396
10543.29004 0.004362
10545.09961 0.004328
10546.90039 0.004295
10548.70996 0.004261
10550.50977 0.004228
10552.32031 0.004193
10554.12012 0.004159
10555.92969 0.004125
10557.73047 0.00409
10559.54004 0.004056
10561.34961 0.004022
10563.15039 0.003989
10564.95996 0.003955
10566.76953 0.003921
10568.58008 0.003888
10570.38965 0.003854
10572.19043 0.003821
10574.00000 0.003787
10575.80957 0.003754
10577.62012 0.00372
10579.42969 0.003687
10581.24023 0.003653
10583.04980 0.00362
10584.86035 0.003586
10586.66992 0.003553
10588.49023 0.003519
10590.29980 0.003485
10592.11035 0.003452
10593.91992 0.003418
10595.73047 0.003385
10597.54980 0.003351
10599.36035 0.003318
10601.16992 0.003297
10602.99023 0.003283
10604.79980 0.003268
10606.62012 0.003253
10608.42969 0.003239
10610.25000 0.003224
10612.05957 0.003211
10613.87988 0.003197
10615.69043 0.003183
10617.50977 0.003169
10619.33008 0.003156
10621.13965 0.003142
10622.95996 0.003128
10624.78027 0.003114
10626.58984 0.0031
10628.41016 0.003086
10630.23047 0.003072
10632.04980 0.003059
10633.87012 0.003045
10635.69043 0.003031
10637.50977 0.003018
10639.33008 0.003004
10641.15039 0.00299
10642.96973 0.002976
10644.79004 0.002961
10646.61035 0.002947
10648.42969 0.002933
10650.25000 0.002918
10652.08008 0.002905
10653.90039 0.002891
10655.71973 0.002877
10657.54004 0.002863
10659.37012 0.002849
10661.19043 0.002835
10663.01953 0.002821
10664.83984 0.002808
10666.66992 0.002794
10668.49023 0.00278
10670.32031 0.002766
10672.13965 0.002753
10673.96973 0.002739
10675.79004 0.002725
10677.62012 0.002712
10679.45020 0.002698
10681.26953 0.002684
10683.09961 0.002671
10684.92969 0.002657
10686.75977 0.002643
10688.58984 0.002629
10690.41992 0.002616
10692.24023 0.002601
10694.07031 0.002587
10695.90039 0.002573
10697.73047 0.002558
10699.55957 0.002544
10701.38965 0.00253
10703.23047 0.002517
10705.05957 0.002503
10706.88965 0.002489
10708.71973 0.002475
10710.54980 0.002462
10712.37988 0.002448
10714.21973 0.002434
10716.04980 0.002421
10717.87988 0.002407
10719.71973 0.002393
10721.54980 0.002379
10723.38965 0.002366
10725.21973 0.002352
10727.05957 0.002338
10728.88965 0.002325
10730.73047 0.002311
10732.55957 0.002297
10734.40039 0.002283
10736.24023 0.002269
10738.07031 0.002255
10739.91016 0.002241
10741.75000 0.002227
10743.58984 0.002214
10745.41992 0.0022
10747.25977 0.002186
10749.09961 0.002173
10750.94043 0.002159
10752.78027 0.002145
10754.62012 0.002132
10756.45996 0.002118
10758.29980 0.002104
10760.13965 0.002091
10761.98047 0.002077
10763.82031 0.002063
10765.66016 0.00205
10767.50977 0.002036
10769.34961 0.002023
10771.19043 0.002009
10773.03027 0.001995
10774.87988 0.001981
10776.71973 0.001967
10778.55957 0.001953
10780.41016 0.001939
10782.25000 0.001925
10784.09961 0.001911
10785.94043 0.001898
10787.79004 0.001885
10789.62988 0.001871
10791.48047 0.001858
10793.33008 0.001845
10795.16992 0.001831
10797.01953 0.001817
10798.87012 0.001804
10800.70996 0.001791
10802.55957 0.001781
10804.41016 0.001771
10806.25977 0.00176
10808.11035 0.00175
10809.95996 0.00174
10811.80957 0.001729
10813.66016 0.001718
10815.50977 0.001708
10817.36035 0.001697
10819.20996 0.001687
10821.05957 0.001677
10822.91016 0.001667
10824.75977 0.001656
10826.62012 0.001646
10828.46973 0.001636
10830.32031 0.001625
10832.16992 0.001615
10834.03027 0.001605
10835.87988 0.001595
10837.73047 0.001584
10839.58984 0.001574
10841.44043 0.001563
10843.29980 0.001553
10845.15039 0.001542
10847.00977 0.001532
10848.86035 0.001522
10850.71973 0.001511
10852.58008 0.001501
10854.42969 0.001491
10856.29004 0.001481
10858.15039 0.001471
10860.00977 0.00146
10861.86035 0.00145
10863.71973 0.00144
10865.58008 0.00143
10867.44043 0.00142
10869.29980 0.00141
10871.16016 0.001399
10873.01953 0.001389
10874.87988 0.001379
10876.74023 0.001369
10878.59961 0.001359
10880.45996 0.001348
10882.32031 0.001338
10884.19043 0.001328
10886.04980 0.001317
10887.91016 0.001307
10889.76953 0.001297
10891.63965 0.001287
10893.50000 0.001277
10895.36035 0.001266
10897.23047 0.001256
10899.08984 0.001246
10900.95996 0.001236
10902.82031 0.001226
10904.69043 0.001216
10906.54980 0.001205
10908.41992 0.001195
10910.29004 0.001185
10912.15039 0.001175
10914.01953 0.001165
10915.88965 0.001155
10917.75000 0.001145
10919.62012 0.001135
10921.49023 0.001124
10923.36035 0.001114
10925.23047 0.001103
10927.09961 0.001093
10928.96973 0.001083
10930.83984 0.001073
10932.70996 0.001063
10934.58008 0.001053
10936.45020 0.001043
10938.32031 0.001033
10940.19043 0.001023
10942.05957 0.001013
10943.94043 0.001003
10945.80957 0.000992
10947.67969 0.000982
10949.54980 0.000972
10951.42969 0.000962
10953.29980 0.000952
10955.17969 0.000941
10957.04980 0.000931
10958.91992 0.000921
10960.79980 0.00091
10962.66992 0.0009
10964.54980 0.00089
10966.42969 0.00088
10968.29980 0.00087
10970.17969 0.00086
10972.05957 0.00085
10973.92969 0.00084
10975.80957 0.00083
10977.69043 0.00082
10979.57031 0.00081
10981.45020 0.0008
10983.33008 0.00079
10985.20020 0.00078
10987.08008 0.000769
10988.95996 0.000759
10990.83984 0.000749
10992.71973 0.000739
10994.59961 0.000729
10996.49023 0.000719
10998.37012 0.000709
11000.25000 0.0007
11002.12988 0.000693
12102.34277 0.0
