# %ECSV 0.9
# ---
# datatype:
# - {name: wavelength, unit: Angstrom, datatype: float32}
# - {name: response, datatype: float32}
# meta: !!omap
# - {band_name: F850LP}
# - {group_name: WFC3_UVIS2}
wavelength response
7390.39941 0.0
8211.55469 0.000409
8212.95996 0.000424
8214.36523 0.000441
8215.77148 0.000458
8217.17676 0.000475
8218.58203 0.000492
8219.98828 0.000509
8221.39453 0.000526
8222.80176 0.000545
8224.20801 0.000566
8225.61523 0.000588
8227.02246 0.000609
8228.43066 0.00063
8229.83789 0.000651
8231.24609 0.000672
8232.65430 0.000695
8234.06348 0.000721
8235.47168 0.000746
8236.88086 0.000772
8238.29004 0.000797
8239.70020 0.000823
8241.10938 0.000848
8242.51953 0.000875
8243.92969 0.000907
8245.34082 0.00094
8246.75098 0.000972
8248.16211 0.001004
8249.57324 0.001036
8250.98438 0.001068
8252.39648 0.001101
8253.80859 0.001142
8255.22070 0.001183
8256.63281 0.001225
8258.04590 0.001266
8259.45898 0.001307
8260.87207 0.001348
8262.28516 0.001389
8263.69922 0.00144
8265.11230 0.001491
8266.52637 0.001542
8267.94141 0.001594
8269.35547 0.001644
8270.77148 0.001695
8272.18555 0.001746
8273.60059 0.001809
8275.01660 0.001872
8276.43262 0.001935
8277.84863 0.001998
8279.26465 0.002061
8280.68164 0.002124
8282.09766 0.002186
8283.51465 0.002259
8284.93262 0.002334
8286.34961 0.002408
8287.76758 0.002482
8289.18555 0.002556
8290.60352 0.002631
8292.02246 0.002705
8293.44141 0.002794
8294.86035 0.002887
8296.27930 0.00298
8297.69824 0.003072
8299.11816 0.003165
8300.53809 0.003257
8301.95801 0.003349
8303.37891 0.003457
8304.79980 0.003568
8306.22070 0.00368
8307.64160 0.003792
8309.06152 0.003903
8310.48438 0.004014
8311.90625 0.004126
8313.32812 0.004253
8314.75098 0.004387
8316.17383 0.004521
8317.59668 0.004654
8319.01953 0.004787
8320.44238 0.00492
8321.86621 0.005052
8323.29004 0.005202
8324.71387 0.005359
8326.13867 0.005517
8327.56348 0.005674
8328.98828 0.005831
8330.41309 0.005987
8331.83789 0.006144
8333.26367 0.006321
8334.68945 0.006507
8336.11523 0.006692
8337.54199 0.006878
8338.96875 0.007063
8340.39648 0.007248
8341.82227 0.007434
8343.24902 0.007638
8344.67676 0.007852
8346.10352 0.008066
8347.53223 0.008279
8348.96094 0.008492
8350.38965 0.008705
8351.81836 0.008916
8353.24707 0.009151
8354.67578 0.009397
8356.10547 0.009643
8357.53516 0.009889
8358.96484 0.010135
8360.39648 0.01038
8361.82617 0.010624
8363.25684 0.01089
8364.68652 0.011165
8366.11816 0.01144
8367.54980 0.011715
8368.98145 0.011989
8370.41309 0.012263
8371.84570 0.012536
8373.27832 0.01283
8374.71094 0.013132
8376.14355 0.013434
8377.57617 0.013735
8379.00977 0.014036
8380.44336 0.014337
8381.87695 0.014639
8383.31152 0.014964
8384.74609 0.015298
8386.18066 0.015632
8387.61523 0.015966
8389.04980 0.016299
8390.48535 0.01663
8391.92090 0.01696
8393.35742 0.017322
8394.79297 0.017695
8396.22852 0.018067
8397.66602 0.018439
8399.10254 0.01881
8400.54004 0.019181
8401.97656 0.019553
8403.41406 0.019951
8404.85254 0.020356
8406.29004 0.02076
8407.72852 0.021163
8409.16699 0.021566
8410.60547 0.02197
8412.04492 0.022375
8413.48438 0.022809
8414.92383 0.023249
8416.36328 0.023688
8417.80371 0.024127
8419.24316 0.024566
8420.68457 0.025002
8422.12500 0.025437
8423.56543 0.025897
8425.00684 0.026361
8426.44824 0.026825
8427.89062 0.027288
8429.33203 0.02775
8430.77441 0.028213
8432.21680 0.028678
8433.65918 0.029199
8435.10254 0.029724
8436.54590 0.030248
8437.98926 0.030771
8439.43262 0.031294
8440.87695 0.031817
8442.32129 0.032339
8443.76562 0.03285
8445.20996 0.033362
8446.65527 0.033873
8448.10059 0.034383
8449.54590 0.034893
8450.99121 0.035406
8452.43652 0.035921
8453.88379 0.036449
8455.33008 0.036978
8456.77637 0.037505
8458.22363 0.038033
8459.67090 0.03856
8461.11816 0.039083
8462.56543 0.039605
8464.01367 0.040137
8465.46191 0.040668
8466.91016 0.041198
8468.35840 0.041728
8469.80762 0.042257
8471.25684 0.042786
8472.70605 0.043318
8474.15527 0.043859
8475.60547 0.0444
8477.05566 0.04494
8478.50586 0.045479
8479.95703 0.046019
8481.40723 0.046557
8482.85840 0.047098
8484.31055 0.047645
8485.76172 0.048191
8487.21387 0.048736
8488.66602 0.049281
8490.11816 0.049826
8491.57031 0.050376
8493.02344 0.050923
8494.47656 0.051466
8495.92969 0.052009
8497.38379 0.052551
8498.83789 0.053093
8500.29199 0.05363
8501.74609 0.05415
8503.20020 0.05467
8504.65527 0.055191
8506.11035 0.05571
8507.56543 0.056229
8509.02148 0.056747
8510.47754 0.057264
8511.93359 0.057781
8513.38965 0.058282
8514.84668 0.058778
8516.30273 0.059272
8517.76074 0.059766
8519.21777 0.060259
8520.67480 0.060751
8522.13281 0.061242
8523.59082 0.061734
8525.04980 0.062225
8526.50781 0.062715
8527.96680 0.063205
8529.42578 0.063693
8530.88574 0.064186
8532.34473 0.064682
8533.80469 0.065157
8535.26465 0.06563
8536.72559 0.066104
8538.18555 0.066576
8539.64648 0.067048
8541.10742 0.067512
8542.56934 0.067973
8544.03027 0.068434
8545.49219 0.068894
8546.95410 0.069354
8548.41699 0.069812
8549.87988 0.07027
8551.34277 0.070727
8552.80566 0.071172
8554.26855 0.071592
8555.73242 0.072012
8557.19629 0.072431
8558.66016 0.072849
8560.12500 0.073266
8561.58887 0.073682
8563.05371 0.074097
8564.51953 0.074509
8565.98438 0.07492
8567.45020 0.075331
8568.91602 0.075741
8570.38184 0.076152
8571.84863 0.076571
8573.31543 0.076971
8574.78223 0.077359
8576.24902 0.077747
8577.71582 0.078134
8579.18359 0.078521
8580.65137 0.078902
8582.12012 0.079277
8583.58789 0.079627
8585.05664 0.079973
8586.52539 0.080317
8587.99512 0.080661
8589.46387 0.081004
8590.93359 0.081347
8592.40332 0.081688
8593.87402 0.082028
8595.34375 0.082367
8596.81445 0.082706
8598.28516 0.083043
8599.75684 0.08338
8601.22754 0.083716
8602.69922 0.084044
8604.17188 0.084346
8605.64355 0.084647
8607.11621 0.084947
8608.58887 0.085246
8610.06152 0.085545
8611.53418 0.085855
8613.00781 0.086164
8614.48145 0.086469
8615.95605 0.086775
8617.42969 0.08708
8618.90430 0.087384
8620.37891 0.087684
8621.85352 0.087975
8623.32910 0.088257
8624.80469 0.088534
8626.28027 0.08881
8627.75586 0.089086
8629.23242 0.089361
8630.70801 0.089648
8632.18457 0.089949
8633.66211 0.090209
8635.13867 0.090464
8636.61621 0.090717
8638.09375 0.09097
8639.57227 0.091223
8641.05078 0.091476
8642.52832 0.09173
8644.00781 0.092008
8645.48633 0.092285
8646.96582 0.092562
8648.44531 0.092838
8649.92480 0.093114
8651.40430 0.093389
8652.88477 0.093645
8654.36523 0.093864
8655.84570 0.094083
8657.32715 0.094301
8658.80859 0.094519
8660.29004 0.094739
8661.77148 0.094969
8663.25391 0.095204
8664.73535 0.095442
8666.21777 0.09568
8667.70117 0.095918
8669.18359 0.096155
8670.66699 0.096385
8672.15039 0.096607
8673.63477 0.096809
8675.11816 0.097006
8676.60254 0.097202
8678.08691 0.097399
8679.57227 0.097594
8681.05664 0.09779
8682.54199 0.09798
8684.02832 0.098136
8685.51367 0.09829
8687.00000 0.098445
8688.48633 0.098599
8689.97266 0.098753
8691.45898 0.098906
8692.94629 0.099061
8694.43359 0.09922
8695.92090 0.099379
8697.40918 0.099537
8698.89746 0.099695
8700.38574 0.099853
8701.87402 0.10001
8703.36328 0.100152
8704.85254 0.100287
8706.34180 0.10042
8707.83105 0.100554
8709.32129 0.100687
8710.81055 0.100828
8712.30176 0.100975
8713.79199 0.101146
8715.28320 0.10132
8716.77441 0.101492
8718.26562 0.101665
8719.75684 0.101836
8721.24902 0.101996
8722.74121 0.102141
8724.23340 0.102247
8725.72656 0.102354
8727.21875 0.102459
8728.71191 0.102565
8730.20605 0.10267
8731.69922 0.102774
8733.19336 0.102864
8734.68848 0.10294
8736.18164 0.103016
8737.67676 0.103092
8739.17188 0.103167
8740.66699 0.103242
8742.16211 0.103317
8743.65820 0.103403
8745.15430 0.103492
8746.65039 0.103579
8748.14648 0.103667
8749.64355 0.103754
8751.14062 0.103841
8752.63770 0.103927
8754.13574 0.104012
8755.63281 0.104096
8757.13086 0.10418
8758.62988 0.104264
8760.12793 0.104349
8761.62695 0.104446
8763.12598 0.104536
8764.62500 0.104616
8766.12500 0.104695
8767.62500 0.104774
8769.12500 0.104853
8770.62500 0.104926
8772.12598 0.104989
8773.62695 0.105033
8775.12793 0.105072
8776.62891 0.10511
8778.13086 0.105149
8779.63281 0.105187
8781.13477 0.105225
8782.63770 0.105261
8784.13965 0.105285
8785.64258 0.105309
8787.14648 0.105332
8788.64941 0.105356
8790.15332 0.105379
8791.65723 0.105402
8793.16113 0.105412
8794.66602 0.10541
8796.17090 0.105407
8797.67578 0.105404
8799.18066 0.105401
8800.68652 0.105388
8802.19238 0.105364
8803.69824 0.105391
8805.20410 0.105427
8806.71094 0.105463
8808.21777 0.105499
8809.72461 0.105534
8811.23145 0.105581
8812.73926 0.105627
8814.24707 0.105659
8815.75488 0.10569
8817.26367 0.105722
8818.77246 0.105753
8820.28125 0.10578
8821.79004 0.105795
8823.29980 0.105788
8824.80957 0.105766
8826.31934 0.105743
8827.82910 0.10572
8829.33984 0.105697
8830.85059 0.105688
8832.36133 0.10569
8833.87207 0.105665
8835.38379 0.105639
8836.89648 0.105612
8838.40723 0.105586
8839.91992 0.105558
8841.43164 0.105531
8842.94434 0.105501
8844.45801 0.105465
8845.97070 0.105428
8847.48438 0.105391
8848.99805 0.105354
8850.51172 0.105317
8852.02637 0.10528
8853.54102 0.105289
8855.05566 0.105315
8856.57129 0.105341
8858.08594 0.105366
8859.60156 0.105391
8861.11719 0.105416
8862.63379 0.105434
8864.15039 0.105411
8865.66699 0.105388
8867.18359 0.105364
8868.70020 0.10534
8870.21777 0.105318
8871.73535 0.105309
8873.25391 0.105297
8874.77148 0.105284
8876.29004 0.10527
8877.80859 0.105256
8879.32812 0.105241
8880.84668 0.105218
8882.36621 0.105188
8883.88574 0.105165
8885.40625 0.105143
8886.92676 0.10512
8888.44727 0.105097
8889.96777 0.105074
8891.48828 0.105051
8893.00977 0.105015
8894.53125 0.104959
8896.05371 0.104902
8897.57520 0.104845
8899.09766 0.104788
8900.62012 0.104731
8902.14355 0.104673
8903.66602 0.10465
8905.18945 0.104636
8906.71289 0.104621
8908.23730 0.104606
8909.76172 0.104591
8911.28613 0.104575
8912.81055 0.104565
8914.33496 0.104574
8915.86035 0.104582
8917.38574 0.10459
8918.91211 0.104598
8920.43848 0.104605
8921.96387 0.104612
8923.49023 0.104519
8925.01758 0.104378
8926.54395 0.104237
8928.07129 0.104097
8929.59863 0.103956
8931.12695 0.103815
8932.65527 0.103683
8934.18359 0.103609
8935.71191 0.103534
8937.24023 0.103459
8938.76953 0.103384
8940.29883 0.103312
8941.82910 0.103252
8943.35840 0.10318
8944.88867 0.103099
8946.41895 0.103018
8947.95020 0.102937
8949.48047 0.102856
8951.01172 0.102764
8952.54395 0.102673
8954.07520 0.102677
8955.60742 0.102681
8957.13965 0.102685
8958.67188 0.102688
8960.20508 0.102691
8961.73828 0.102694
8963.27148 0.102635
8964.80469 0.10252
8966.33887 0.102406
8967.87305 0.102291
8969.40723 0.102177
8970.94141 0.102062
8972.47656 0.101948
8974.01172 0.101925
8975.54688 0.101902
8977.08301 0.101879
8978.61816 0.101855
8980.15527 0.101831
8981.69141 0.101807
8983.22754 0.101741
8984.76465 0.101631
8986.30176 0.101522
8987.83984 0.101412
8989.37793 0.101302
8990.91602 0.101192
8992.45410 0.101082
8993.99219 0.101007
8995.53125 0.100932
8997.07031 0.100857
8998.60938 0.100782
9000.14941 0.100707
9001.68945 0.100634
9003.22852 0.100546
9004.76953 0.100442
9006.31055 0.100338
9007.85156 0.100235
9009.39258 0.100131
9010.93359 0.100036
9012.47559 0.099947
9014.01758 0.099931
9015.55957 0.099915
9017.10254 0.099898
9018.64648 0.099881
9020.18848 0.099862
9021.73145 0.09983
9023.27539 0.099787
9024.81934 0.099732
9026.36328 0.099678
9027.90723 0.099623
9029.45215 0.099568
9030.99707 0.099519
9032.54199 0.099471
9034.08789 0.099346
9035.63281 0.099222
9037.17871 0.099098
9038.72559 0.098974
9040.27148 0.09885
9041.81836 0.098725
9043.36523 0.098612
9044.91309 0.098505
9046.45996 0.098399
9048.00781 0.098293
9049.55664 0.098186
9051.10352 0.09808
9052.65332 0.097976
9054.20215 0.097897
9055.75098 0.097818
9057.30078 0.097738
9058.85059 0.097658
9060.40039 0.097578
9061.95020 0.097499
9063.50098 0.097418
9065.05176 0.097336
9066.60254 0.097255
9068.15332 0.097173
9069.70508 0.097091
9071.25684 0.09701
9072.80859 0.096925
9074.36133 0.096833
9075.91406 0.096741
9077.46680 0.096648
9079.01953 0.096555
9080.57324 0.096468
9082.12695 0.09639
9083.68066 0.096327
9085.23535 0.096268
9086.78906 0.09621
9088.34375 0.096151
9089.89941 0.096092
9091.45410 0.096019
9093.00977 0.095943
9094.56543 0.095864
9096.12109 0.095784
9097.67773 0.095704
9099.23438 0.095623
9100.79102 0.095543
9102.34863 0.095463
9103.90527 0.095358
9105.46289 0.095251
9107.02148 0.095144
9108.57910 0.095037
9110.13770 0.094929
9111.69629 0.094822
9113.25586 0.094722
9114.81445 0.094629
9116.37402 0.094537
9117.93359 0.094444
9119.49414 0.094351
9121.05469 0.094258
9122.61523 0.094164
9124.17578 0.094062
9125.73633 0.09396
9127.29785 0.093857
9128.85938 0.093755
9130.42188 0.093652
9131.98340 0.09355
9133.54590 0.093441
9135.10938 0.093329
9136.67188 0.093218
9138.23535 0.093106
9139.79883 0.092994
9141.36230 0.092882
9142.92676 0.092777
9144.49121 0.09269
9146.05566 0.092604
9147.62012 0.092517
9149.18555 0.09243
9150.75098 0.092343
9152.31641 0.092256
9153.88184 0.092143
9155.44824 0.092026
9157.01465 0.091909
9158.58203 0.091791
9160.14844 0.091674
9161.71582 0.091556
9163.28320 0.091456
9164.85156 0.091372
9166.41895 0.091289
9167.98730 0.091205
9169.55566 0.091121
9171.12500 0.091037
9172.69434 0.090949
9174.26367 0.090834
9175.83301 0.090719
9177.40332 0.090603
9178.97363 0.090487
9180.54395 0.090376
9182.11426 0.090275
9183.68555 0.090182
9185.25684 0.090093
9186.82812 0.090003
9188.40039 0.089913
9189.97266 0.089823
9191.54492 0.089719
9193.11719 0.089611
9194.69043 0.089495
9196.26367 0.089379
9197.83691 0.089263
9199.41016 0.089147
9200.98438 0.089025
9202.55859 0.0889
9204.13281 0.088791
9205.70801 0.088683
9207.28320 0.088574
9208.85840 0.088465
9210.43359 0.088356
9212.00977 0.088246
9213.58594 0.088153
9215.16211 0.088068
9216.73926 0.087983
9218.31543 0.087897
9219.89258 0.087811
9221.47070 0.087725
9223.04785 0.087622
9224.62598 0.087483
9226.20410 0.087344
9227.78320 0.087204
9229.36230 0.087065
9230.94141 0.086929
9232.52148 0.086796
9234.09961 0.086684
9235.67969 0.086573
9237.25977 0.086462
9238.84082 0.08635
9240.42090 0.086239
9242.00195 0.086127
9243.58301 0.086
9245.16504 0.085864
9246.74707 0.085728
9248.32910 0.085593
9249.91113 0.085457
9251.49414 0.085321
9253.07715 0.085198
9254.66016 0.085098
9256.24316 0.084999
9257.82715 0.084899
9259.41113 0.0848
9260.99512 0.0847
9262.58008 0.084599
9264.16406 0.084478
9265.74902 0.084357
9267.33496 0.084235
9268.91992 0.084114
9270.50586 0.083992
9272.09277 0.083871
9273.67871 0.083749
9275.26562 0.083628
9276.85254 0.083506
9278.43945 0.083384
9280.02734 0.083262
9281.61523 0.08314
9283.20312 0.083019
9284.79102 0.082897
9286.37988 0.082776
9287.96875 0.082654
9289.55762 0.082532
9291.14746 0.082411
9292.73633 0.082288
9294.32715 0.082161
9295.91699 0.082035
9297.50781 0.081908
9299.09863 0.081781
9300.68945 0.08166
9302.28027 0.081546
9303.87207 0.081443
9305.46387 0.081343
9307.05566 0.081243
9308.64844 0.081142
9310.24121 0.08104
9311.83398 0.080926
9313.42676 0.080804
9315.02148 0.080677
9316.61426 0.080549
9318.20801 0.080421
9319.80273 0.080292
9321.39746 0.080164
9322.99219 0.080036
9324.58691 0.079911
9326.18262 0.079785
9327.77832 0.079659
9329.37402 0.079533
9330.97070 0.079407
9332.56738 0.079281
9334.16406 0.079156
9335.76074 0.079031
9337.35840 0.078905
9338.95605 0.078779
9340.55371 0.078654
9342.15137 0.078528
9343.75000 0.078395
9345.34863 0.078261
9346.94727 0.078126
9348.54688 0.077991
9350.14648 0.077856
9351.74609 0.077721
9353.34570 0.07759
9354.94629 0.077463
9356.54688 0.077337
9358.14746 0.07721
9359.74902 0.077083
9361.35059 0.076956
9362.95215 0.076834
9364.55371 0.076729
9366.15625 0.076623
9367.75879 0.076517
9369.36133 0.07641
9370.96484 0.076304
9372.56738 0.076197
9374.17188 0.076055
9375.77539 0.075914
9377.37988 0.075772
9378.98340 0.07563
9380.58887 0.075488
9382.19336 0.075346
9383.79883 0.075211
9385.40430 0.075078
9387.00977 0.074944
9388.61621 0.074811
9390.22266 0.074677
9391.82910 0.074543
9393.43555 0.074409
9395.04297 0.074276
9396.65039 0.074142
9398.25781 0.074009
9399.86621 0.073875
9401.47461 0.07373
9403.08301 0.073586
9404.69141 0.07345
9406.30078 0.073314
9407.91016 0.073177
9409.51953 0.073041
9411.12988 0.072904
9412.74023 0.072765
9414.35059 0.072608
9415.96094 0.072452
9417.57227 0.072295
9419.18359 0.072138
9420.79492 0.071981
9422.40723 0.071824
9424.01953 0.071674
9425.63184 0.071524
9427.24414 0.071375
9428.85742 0.071225
9430.47070 0.071077
9432.08398 0.070935
9433.69727 0.070796
9435.31152 0.070657
9436.92578 0.070519
9438.54102 0.07038
9440.15527 0.070241
9441.77148 0.070102
9443.38574 0.069965
9445.00195 0.069828
9446.61816 0.069691
9448.23438 0.069554
9449.85059 0.069416
9451.46777 0.069279
9453.08496 0.069135
9454.70215 0.068977
9456.31934 0.068819
9457.93848 0.068661
9459.55566 0.068502
9461.17383 0.068344
9462.79297 0.06819
9464.41211 0.068066
9466.03125 0.067942
9467.65137 0.067818
9469.27148 0.067694
9470.89062 0.067569
9472.51172 0.067445
9474.13184 0.067297
9475.75293 0.067147
9477.37402 0.066998
9478.99609 0.066848
9480.61719 0.066698
9482.23926 0.066548
9483.86230 0.066399
9485.48438 0.06625
9487.10742 0.0661
9488.73047 0.065951
9490.35352 0.065801
9491.97754 0.065652
9493.60156 0.065505
9495.22656 0.065361
9496.85059 0.065216
9498.47559 0.065071
9500.10059 0.064929
9501.72656 0.064819
9503.35156 0.064708
9504.97754 0.064595
9506.60352 0.064481
9508.23047 0.064368
9509.85742 0.064254
9511.48438 0.06414
9513.11230 0.064025
9514.73926 0.063908
9516.36719 0.063791
9517.99609 0.063673
9519.62402 0.063556
9521.25293 0.063438
9522.88184 0.063323
9524.51172 0.063223
9526.14062 0.063123
9527.77148 0.063022
9529.40137 0.062922
9531.03125 0.062821
9532.66211 0.06272
9534.29297 0.0626
9535.92480 0.06248
9537.55566 0.062361
9539.18848 0.062241
9540.81934 0.062121
9542.45215 0.062001
9544.08496 0.061888
9545.71777 0.061776
9547.35059 0.061664
9548.98438 0.061552
9550.61816 0.06144
9552.25195 0.061328
9553.88672 0.061212
9555.52148 0.061095
9557.15625 0.060978
9558.79102 0.060862
9560.42676 0.060745
9562.06152 0.060627
9563.69824 0.060512
9565.33496 0.060396
9566.97168 0.060281
9568.60840 0.060166
9570.24512 0.06005
9571.88281 0.059934
9573.52148 0.059816
9575.15820 0.059695
9576.79688 0.059574
9578.43555 0.059453
9580.07422 0.059332
9581.71289 0.059211
9583.35254 0.059094
9584.99219 0.058982
9586.63184 0.058871
9588.27246 0.05876
9589.91309 0.058648
9591.55371 0.058536
9593.19434 0.058422
9594.83594 0.058303
9596.47754 0.058184
9598.12012 0.058064
9599.76172 0.057945
9601.40430 0.057831
9603.04688 0.057717
9604.69043 0.057598
9606.33301 0.057479
9607.97656 0.057361
9609.62109 0.057242
9611.26465 0.057108
9612.90918 0.056971
9614.55371 0.056842
9616.19922 0.056713
9617.84473 0.056584
9619.49023 0.056455
9621.13574 0.056333
9622.78223 0.056212
9624.42871 0.056087
9626.07520 0.055962
9627.72168 0.055837
9629.36914 0.055711
9631.01660 0.055585
9632.66504 0.055459
9634.31152 0.055333
9635.96094 0.055206
9637.60938 0.055079
9639.25879 0.054951
9640.90820 0.054824
9642.55762 0.054697
9644.20703 0.054578
9645.85742 0.05446
9647.50781 0.054341
9649.15820 0.054223
9650.80957 0.054104
9652.45996 0.053986
9654.11230 0.053856
9655.76367 0.053726
9657.41602 0.053595
9659.06836 0.053465
9660.72070 0.053334
9662.37402 0.053203
9664.02637 0.053075
9665.68066 0.052948
9667.33398 0.052821
9668.98828 0.052694
9670.64258 0.052567
9672.29688 0.05244
9673.95215 0.052316
9675.60645 0.052194
9677.26270 0.052072
9678.91797 0.05195
9680.57422 0.051827
9682.23047 0.051705
9683.88672 0.051578
9685.54395 0.051451
9687.20117 0.051323
9688.85840 0.051195
9690.51660 0.051067
9692.17383 0.050939
9693.83203 0.050805
9695.49121 0.050669
9697.14941 0.050533
9698.80859 0.050397
9700.46875 0.05026
9702.12793 0.050124
9703.78809 0.049993
9705.44824 0.049865
9707.10840 0.049736
9708.76953 0.049608
9710.43066 0.049479
9712.09180 0.04935
9713.75391 0.049223
9715.41602 0.049095
9717.07812 0.048968
9718.74023 0.04884
9720.40332 0.048713
9722.06641 0.048585
9723.72852 0.048453
9725.39355 0.048319
9727.05762 0.048185
9728.72168 0.048051
9730.38672 0.047917
9732.05078 0.047783
9733.71582 0.047652
9735.38184 0.047523
9737.04688 0.047394
9738.71289 0.047264
9740.37988 0.047135
9742.04590 0.047005
9743.71289 0.046873
9745.37988 0.04674
9747.04785 0.046607
9748.71484 0.046473
9750.38281 0.04634
9752.05078 0.046206
9753.71973 0.046074
9755.38867 0.045943
9757.05762 0.045811
9758.72656 0.045679
9760.39648 0.045547
9762.06641 0.045415
9763.73730 0.045285
9765.40723 0.045157
9767.07812 0.045028
9768.74902 0.044899
9770.42090 0.04477
9772.09277 0.04464
9773.76465 0.044504
9775.43652 0.044365
9777.10938 0.044225
9778.78223 0.044085
9780.45508 0.043945
9782.12793 0.043805
9783.80176 0.04367
9785.47559 0.043538
9787.15039 0.043405
9788.82520 0.043272
9790.50000 0.043139
9792.17480 0.043006
9793.84961 0.042871
9795.52539 0.042733
9797.20215 0.042596
9798.87793 0.042459
9800.55469 0.04232
9802.23145 0.042179
9803.90820 0.042039
9805.58594 0.041899
9807.26367 0.041759
9808.94141 0.04162
9810.62012 0.04148
9812.29785 0.04134
9813.97754 0.041201
9815.65625 0.041062
9817.33594 0.040923
9819.01562 0.040784
9820.69531 0.040645
9822.37598 0.040506
9824.05566 0.040364
9825.73730 0.040222
9827.41797 0.040079
9829.09961 0.039937
9830.78125 0.039795
9832.46289 0.039655
9834.14648 0.039516
9835.82812 0.039377
9837.51074 0.039238
9839.19434 0.039099
9840.87793 0.03896
9842.56152 0.038821
9844.24512 0.038687
9845.92969 0.038553
9847.61426 0.038419
9849.29883 0.038285
9850.98438 0.03815
9852.66992 0.038016
9854.35547 0.037873
9856.04102 0.03773
9857.72754 0.037587
9859.41406 0.037444
9861.10156 0.0373
9862.78809 0.037157
9864.47559 0.037018
9866.16309 0.036878
9867.85156 0.036737
9869.54004 0.036597
9871.22852 0.036457
9872.91699 0.036316
9874.60645 0.036174
9876.29590 0.036031
9877.98633 0.035888
9879.67578 0.035746
9881.36621 0.035603
9883.05664 0.035461
9884.74805 0.035323
9886.43945 0.035184
9888.13086 0.035046
9889.82227 0.034908
9891.51465 0.034769
9893.20703 0.034629
9894.89941 0.034484
9896.59277 0.03434
9898.28613 0.034196
9899.97852 0.034051
9901.67285 0.033901
9903.36719 0.033749
9905.06152 0.033597
9906.75684 0.033445
9908.45117 0.033294
9910.14648 0.033142
9911.84277 0.032996
9913.53809 0.032852
9915.23438 0.032709
9916.93066 0.032566
9918.62793 0.032423
9920.32422 0.03228
9922.02148 0.032137
9923.71973 0.031992
9925.41699 0.031847
9927.11523 0.031701
9928.81445 0.031556
9930.51270 0.03141
9932.21191 0.031264
9933.91113 0.03112
9935.61035 0.030976
9937.31055 0.030832
9939.01074 0.030687
9940.71191 0.030543
9942.41211 0.030399
9944.11328 0.030256
9945.81445 0.030114
9947.51660 0.029972
9949.21875 0.029829
9950.92090 0.029686
9952.62305 0.029544
9954.32617 0.029396
9956.02930 0.029249
9957.73242 0.029102
9959.43652 0.028954
9961.14062 0.028806
9962.84473 0.028659
9964.54883 0.028514
9966.25391 0.028369
9967.95898 0.028224
9969.66504 0.028078
9971.37012 0.027933
9973.07617 0.027788
9974.78320 0.027644
9976.48926 0.027499
9978.19629 0.027355
9979.90332 0.027211
9981.61133 0.027066
9983.31934 0.026921
9985.02734 0.026774
9986.73535 0.026628
9988.44434 0.026481
9990.15332 0.026334
9991.86230 0.026187
9993.57227 0.02604
9995.28125 0.025892
9996.99219 0.025743
9998.70215 0.025595
10000.41016 0.025459
10002.12012 0.02536
10003.83008 0.025262
10005.54980 0.025164
10007.25977 0.025066
10008.96973 0.024968
10010.67969 0.02487
10012.40039 0.024772
10014.11035 0.024676
10015.82031 0.024581
10017.54004 0.024485
10019.25000 0.024389
10020.95996 0.024293
10022.67969 0.024197
10024.38965 0.024096
10026.11035 0.023995
10027.82031 0.023894
10029.54004 0.023793
10031.25977 0.023689
10032.96973 0.023584
10034.69043 0.023481
10036.41016 0.023378
10038.12012 0.023275
10039.83984 0.023171
10041.55957 0.023072
10043.28027 0.022974
10045.00000 0.022877
10046.70996 0.02278
10048.42969 0.022683
10050.15039 0.022586
10051.87012 0.022489
10053.58984 0.022391
10055.30957 0.02229
10057.03027 0.02219
10058.75000 0.022089
10060.46973 0.021989
10062.19043 0.021889
10063.91992 0.02179
10065.63965 0.021692
10067.36035 0.021593
10069.08008 0.021495
10070.80957 0.021397
10072.53027 0.021299
10074.25000 0.021201
10075.98047 0.021103
10077.70020 0.021006
10079.41992 0.020908
10081.15039 0.02081
10082.87012 0.020712
10084.59961 0.020613
10086.32031 0.020514
10088.04980 0.020414
10089.78027 0.020315
10091.50000 0.020216
10093.23047 0.020116
10094.95996 0.020016
10096.67969 0.019916
10098.41016 0.019816
10100.13965 0.019716
10101.87012 0.019616
10103.58984 0.019517
10105.32031 0.019417
10107.04980 0.019317
10108.78027 0.019217
10110.50977 0.019117
10112.24023 0.019017
10113.96973 0.018919
10115.70020 0.018821
10117.42969 0.018723
10119.16016 0.018625
10120.88965 0.018525
10122.62988 0.018424
10124.36035 0.018319
10126.08984 0.018215
10127.82031 0.01811
10129.54980 0.018006
10131.29004 0.017904
10133.01953 0.017803
10134.75000 0.017703
10136.49023 0.017603
10138.21973 0.017504
10139.95996 0.017404
10141.69043 0.017304
10143.42969 0.017205
10145.16016 0.017109
10146.90039 0.017013
10148.63965 0.016916
10150.37012 0.01682
10152.11035 0.016723
10153.84961 0.016623
10155.58008 0.01652
10157.32031 0.016417
10159.05957 0.016315
10160.79980 0.016212
10162.54004 0.016109
10164.26953 0.01601
10166.00977 0.015912
10167.75000 0.015814
10169.49023 0.015716
10171.23047 0.015617
10172.96973 0.015519
10174.70996 0.01542
10176.45020 0.01532
10178.19043 0.015221
10179.94043 0.015122
10181.67969 0.015023
10183.41992 0.014923
10185.16016 0.014822
10186.90039 0.014722
10188.65039 0.014622
10190.38965 0.014521
10192.12988 0.014421
10193.87988 0.014321
10195.62012 0.014221
10197.37012 0.014121
10199.11035 0.014021
10200.86035 0.013938
10202.59961 0.013872
10204.34961 0.013806
10206.08984 0.01374
10207.83984 0.013674
10209.58984 0.013608
10211.33008 0.013544
10213.08008 0.01348
10214.83008 0.013416
10216.58008 0.013351
10218.32031 0.013286
10220.07031 0.013221
10221.82031 0.013157
10223.57031 0.013093
10225.32031 0.013029
10227.07031 0.012966
10228.82031 0.012902
10230.57031 0.012839
10232.32031 0.012776
10234.07031 0.012712
10235.82031 0.012648
10237.57031 0.012585
10239.32031 0.012521
10241.07031 0.012457
10242.83008 0.012393
10244.58008 0.012329
10246.33008 0.012265
10248.08008 0.012202
10249.83984 0.012138
10251.58984 0.012074
10253.34961 0.01201
10255.09961 0.011948
10256.84961 0.011885
10258.61035 0.011823
10260.36035 0.01176
10262.12012 0.011697
10263.87988 0.011634
10265.62988 0.011569
10267.38965 0.011504
10269.15039 0.01144
10270.90039 0.011374
10272.66016 0.011307
10274.41992 0.011241
10276.16992 0.011174
10277.92969 0.011108
10279.69043 0.011041
10281.45020 0.010977
10283.20996 0.010913
10284.96973 0.01085
10286.73047 0.010786
10288.49023 0.010723
10290.25000 0.01066
10292.00977 0.010597
10293.76953 0.010533
10295.53027 0.010469
10297.29004 0.010405
10299.04980 0.01034
10300.82031 0.010276
10302.58008 0.010212
10304.33984 0.010147
10306.11035 0.010083
10307.87012 0.010019
10309.62988 0.009955
10311.40039 0.009891
10313.16016 0.009827
10314.91992 0.009763
10316.69043 0.009699
10318.45996 0.009636
10320.21973 0.009572
10321.99023 0.009508
10323.75000 0.009445
10325.51953 0.009381
10327.29004 0.009318
10329.04980 0.009255
10330.82031 0.009191
10332.58984 0.009128
10334.34961 0.009064
10336.12012 0.009001
10337.88965 0.008937
10339.66016 0.008874
10341.42969 0.008809
10343.20020 0.008744
10344.96973 0.008677
10346.74023 0.00861
10348.50977 0.008543
10350.28027 0.008477
10352.04980 0.008412
10353.82031 0.008348
10355.58984 0.008285
10357.36035 0.008222
10359.13965 0.008158
10360.91016 0.008095
10362.67969 0.008032
10364.45020 0.007968
10366.23047 0.007904
10368.00000 0.00784
10369.78027 0.007776
10371.54980 0.007712
10373.32031 0.007648
10375.09961 0.007585
10376.87012 0.007522
10378.65039 0.007459
10380.41992 0.007396
10382.20020 0.007333
10383.98047 0.007269
10385.75000 0.007204
10387.53027 0.00714
10389.30957 0.007076
10391.08984 0.007012
10392.86035 0.006947
10394.63965 0.006883
10396.41992 0.006819
10398.20020 0.006755
10399.98047 0.00669
10401.75977 0.006656
10403.54004 0.006622
10405.32031 0.006588
10407.09961 0.006555
10408.87988 0.006521
10410.66016 0.006488
10412.44043 0.006456
10414.21973 0.006424
10416.00000 0.006391
10417.79004 0.006359
10419.57031 0.006327
10421.34961 0.006294
10423.12988 0.006262
10424.91992 0.00623
10426.70020 0.006198
10428.48047 0.006166
10430.26953 0.006135
10432.04980 0.006103
10433.83984 0.006071
10435.62012 0.006038
10437.41016 0.006006
10439.19043 0.005974
10440.98047 0.005941
10442.76953 0.005909
10444.54980 0.005877
10446.33984 0.005845
10448.12988 0.005812
10449.91992 0.00578
10451.70020 0.005747
10453.49023 0.005713
10455.28027 0.00568
10457.07031 0.005646
10458.86035 0.005612
10460.65039 0.005579
10462.44043 0.005547
10464.23047 0.005515
10466.01953 0.005482
10467.80957 0.00545
10469.59961 0.005418
10471.38965 0.005385
10473.17969 0.005353
10474.96973 0.005321
10476.76953 0.005288
10478.55957 0.005256
10480.34961 0.005223
10482.15039 0.005191
10483.94043 0.005159
10485.73047 0.005127
10487.53027 0.005096
10489.32031 0.005064
10491.12012 0.005032
10492.91016 0.005
10494.70996 0.004968
10496.50000 0.004936
10498.29980 0.004903
10500.08984 0.004871
10501.88965 0.004838
10503.69043 0.004804
10505.48047 0.004771
10507.28027 0.004738
10509.08008 0.004704
10510.87988 0.004672
10512.67969 0.004639
10514.46973 0.004607
10516.26953 0.004575
10518.07031 0.004542
10519.87012 0.00451
10521.66992 0.004478
10523.46973 0.004446
10525.26953 0.004414
10527.07031 0.004382
10528.87988 0.00435
10530.67969 0.004319
10532.48047 0.004287
10534.28027 0.004255
10536.08008 0.004222
10537.87988 0.00419
10539.69043 0.004158
10541.49023 0.004125
10543.29004 0.004093
10545.09961 0.004061
10546.90039 0.004029
10548.70996 0.003997
10550.50977 0.003965
10552.32031 0.003932
10554.12012 0.003899
10555.92969 0.003866
10557.73047 0.003833
10559.54004 0.0038
10561.34961 0.003768
10563.15039 0.003736
10564.95996 0.003704
10566.76953 0.003672
10568.58008 0.00364
10570.38965 0.003608
10572.19043 0.003576
10574.00000 0.003544
10575.80957 0.003512
10577.62012 0.003479
10579.42969 0.003447
10581.24023 0.003415
10583.04980 0.003383
10584.86035 0.003351
10586.66992 0.003319
10588.49023 0.003287
10590.29980 0.003255
10592.11035 0.003222
10593.91992 0.00319
10595.73047 0.003158
10597.54980 0.003127
10599.36035 0.003095
10601.16992 0.003075
10602.99023 0.003061
10604.79980 0.003048
10606.62012 0.003035
10608.42969 0.003021
10610.25000 0.003008
10612.05957 0.002995
10613.87988 0.002982
10615.69043 0.00297
10617.50977 0.002957
10619.33008 0.002944
10621.13965 0.002932
10622.95996 0.002919
10624.78027 0.002906
10626.58984 0.002893
10628.41016 0.00288
10630.23047 0.002868
10632.04980 0.002855
10633.87012 0.002842
10635.69043 0.00283
10637.50977 0.002817
10639.33008 0.002804
10641.15039 0.002792
10642.96973 0.002778
10644.79004 0.002765
10646.61035 0.002752
10648.42969 0.002739
10650.25000 0.002725
10652.08008 0.002713
10653.90039 0.0027
10655.71973 0.002687
10657.54004 0.002674
10659.37012 0.002661
10661.19043 0.002648
10663.01953 0.002636
10664.83984 0.002623
10666.66992 0.00261
10668.49023 0.002598
10670.32031 0.002585
10672.13965 0.002573
10673.96973 0.00256
10675.79004 0.002547
10677.62012 0.002535
10679.45020 0.002522
10681.26953 0.002509
10683.09961 0.002497
10684.92969 0.002484
10686.75977 0.002471
10688.58984 0.002459
10690.41992 0.002446
10692.24023 0.002433
10694.07031 0.00242
10695.90039 0.002406
10697.73047 0.002393
10699.55957 0.00238
10701.38965 0.002367
10703.23047 0.002355
10705.05957 0.002342
10706.88965 0.002329
10708.71973 0.002317
10710.54980 0.002304
10712.37988 0.002291
10714.21973 0.002279
10716.04980 0.002266
10717.87988 0.002253
10719.71973 0.002241
10721.54980 0.002228
10723.38965 0.002215
10725.21973 0.002203
10727.05957 0.00219
10728.88965 0.002178
10730.73047 0.002165
10732.55957 0.002152
10734.40039 0.002139
10736.24023 0.002126
10738.07031 0.002113
10739.91016 0.0021
10741.75000 0.002087
10743.58984 0.002075
10745.41992 0.002062
10747.25977 0.00205
10749.09961 0.002037
10750.94043 0.002024
10752.78027 0.002012
10754.62012 0.001999
10756.45996 0.001987
10758.29980 0.001974
10760.13965 0.001961
10761.98047 0.001949
10763.82031 0.001936
10765.66016 0.001924
10767.50977 0.001911
10769.34961 0.001899
10771.19043 0.001886
10773.03027 0.001873
10774.87988 0.00186
10776.71973 0.001847
10778.55957 0.001834
10780.41016 0.001821
10782.25000 0.001808
10784.09961 0.001796
10785.94043 0.001784
10787.79004 0.001771
10789.62988 0.001759
10791.48047 0.001747
10793.33008 0.001734
10795.16992 0.001722
10797.01953 0.001709
10798.87012 0.001697
10800.70996 0.001685
10802.55957 0.001675
10804.41016 0.001666
10806.25977 0.001656
10808.11035 0.001647
10809.95996 0.001637
10811.80957 0.001627
10813.66016 0.001617
10815.50977 0.001607
10817.36035 0.001598
10819.20996 0.001588
10821.05957 0.001578
10822.91016 0.001569
10824.75977 0.001559
10826.62012 0.00155
10828.46973 0.00154
10830.32031 0.00153
10832.16992 0.001521
10834.03027 0.001511
10835.87988 0.001502
10837.73047 0.001492
10839.58984 0.001482
10841.44043 0.001472
10843.29980 0.001463
10845.15039 0.001453
10847.00977 0.001443
10848.86035 0.001434
10850.71973 0.001424
10852.58008 0.001415
10854.42969 0.001405
10856.29004 0.001395
10858.15039 0.001386
10860.00977 0.001376
10861.86035 0.001367
10863.71973 0.001357
10865.58008 0.001348
10867.44043 0.001338
10869.29980 0.001329
10871.16016 0.00132
10873.01953 0.00131
10874.87988 0.001301
10876.74023 0.001291
10878.59961 0.001282
10880.45996 0.001272
10882.32031 0.001262
10884.19043 0.001253
10886.04980 0.001243
10887.91016 0.001233
10889.76953 0.001224
10891.63965 0.001214
10893.50000 0.001205
10895.36035 0.001195
10897.23047 0.001186
10899.08984 0.001176
10900.95996 0.001167
10902.82031 0.001157
10904.69043 0.001148
10906.54980 0.001139
10908.41992 0.001129
10910.29004 0.00112
10912.15039 0.00111
10914.01953 0.001101
10915.88965 0.001091
10917.75000 0.001082
10919.62012 0.001072
10921.49023 0.001063
10923.36035 0.001053
10925.23047 0.001043
10927.09961 0.001034
10928.96973 0.001024
10930.83984 0.001015
10932.70996 0.001005
10934.58008 0.000996
10936.45020 0.000987
10938.32031 0.000977
10940.19043 0.000968
10942.05957 0.000959
10943.94043 0.000949
10945.80957 0.00094
10947.67969 0.00093
10949.54980 0.000921
10951.42969 0.000911
10953.29980 0.000902
10955.17969 0.000892
10957.04980 0.000882
10958.91992 0.000873
10960.79980 0.000863
10962.66992 0.000854
10964.54980 0.000845
10966.42969 0.000835
10968.29980 0.000826
10970.17969 0.000816
10972.05957 0.000807
10973.92969 0.000798
10975.80957 0.000788
10977.69043 0.000779
10979.57031 0.00077
10981.45020 0.00076
10983.33008 0.000751
10985.20020 0.000741
10987.08008 0.000732
10988.95996 0.000722
10990.83984 0.000713
10992.71973 0.000703
10994.59961 0.000694
10996.49023 0.000685
10998.37012 0.000676
11000.25000 0.000667
11002.12988 0.00066
12102.34277 0.0
