# %ECSV 0.9
# ---
# datatype:
# - {name: wavelength, unit: Angstrom, datatype: float32}
# - {name: response, datatype: float32}
# meta: !!omap
# - {band_name: F139M}
# - {group_name: WFC3_IR}
wavelength response
11968.14648 0.0
13297.94043 0.000419
13299.01953 0.000446
13300.09961 0.000472
13301.17969 0.000499
13302.25977 0.000525
13303.33984 0.000552
13304.41992 0.000558
13305.50000 0.000555
13306.58008 0.000553
13307.66016 0.00055
13308.74023 0.000548
13309.82031 0.000545
13310.88965 0.000543
13311.96973 0.000541
13313.04980 0.000538
13314.12988 0.000539
13315.20996 0.000542
13316.29004 0.000546
13317.37012 0.000549
13318.45996 0.000553
13319.54004 0.000557
13320.62012 0.00056
13321.70020 0.000564
13322.78027 0.000568
13323.86035 0.000575
13324.94043 0.000597
13326.01953 0.000619
13327.09961 0.00064
13328.17969 0.000662
13329.25977 0.000684
13330.33984 0.000706
13331.42969 0.000728
13332.50977 0.00075
13333.58984 0.000771
13334.66992 0.000793
13335.75000 0.000815
13336.83008 0.000837
13337.91992 0.000859
13339.00000 0.000881
13340.08008 0.000902
13341.16016 0.000924
13342.25000 0.000946
13343.33008 0.000968
13344.41016 0.00099
13345.49023 0.001012
13346.58008 0.001033
13347.66016 0.001055
13348.74023 0.001077
13349.82031 0.001099
13350.91016 0.001121
13351.99023 0.001143
13353.07031 0.001164
13354.16016 0.0012
13355.24023 0.001253
13356.32031 0.001305
13357.41016 0.001357
13358.49023 0.001409
13359.57031 0.001461
13360.66016 0.001513
13361.74023 0.001566
13362.83008 0.001618
13363.91016 0.001676
13364.99023 0.001752
13366.08008 0.001829
13367.16016 0.001905
13368.25000 0.001982
13369.33008 0.002059
13370.41992 0.002135
13371.50000 0.002212
13372.58008 0.002288
13373.66992 0.002365
13374.75000 0.002448
13375.83984 0.00253
13376.91992 0.002613
13378.00977 0.002696
13379.08984 0.002778
13380.17969 0.002861
13381.26953 0.002944
13382.34961 0.003027
13383.44043 0.00311
13384.51953 0.003222
13385.61035 0.003342
13386.69043 0.003461
13387.78027 0.003581
13388.87012 0.0037
13389.95020 0.00382
13391.04004 0.003939
13392.12012 0.004058
13393.20996 0.004178
13394.29980 0.004322
13395.37988 0.004484
13396.46973 0.004646
13397.55957 0.004808
13398.63965 0.00497
13399.73047 0.005132
13400.82031 0.005293
13401.91016 0.005455
13402.99023 0.005617
13404.08008 0.0058
13405.16992 0.006018
13406.25000 0.006236
13407.33984 0.006454
13408.42969 0.006672
13409.51953 0.00689
13410.61035 0.007108
13411.69043 0.007326
13412.78027 0.007544
13413.87012 0.007785
13414.95996 0.008125
13416.04980 0.008465
13417.12988 0.008805
13418.21973 0.009145
13419.30957 0.009484
13420.40039 0.009825
13421.49023 0.010165
13422.58008 0.010505
13423.66992 0.010845
13424.75000 0.011305
13425.83984 0.011767
13426.92969 0.012228
13428.01953 0.01269
13429.11035 0.013151
13430.20020 0.013613
13431.29004 0.014074
13432.37988 0.014535
13433.46973 0.014997
13434.55957 0.015657
13435.65039 0.016362
13436.74023 0.017068
13437.83008 0.017773
13438.91992 0.018479
13440.00977 0.019184
13441.09961 0.019891
13442.19043 0.020598
13443.28027 0.021306
13444.37012 0.022232
13445.45996 0.023281
13446.54980 0.024331
13447.63965 0.025381
13448.73047 0.026432
13449.83008 0.027482
13450.91992 0.028531
13452.00977 0.029579
13453.09961 0.030626
13454.19043 0.031874
13455.28027 0.033347
13456.37012 0.034819
13457.45996 0.036292
13458.55957 0.037765
13459.65039 0.039238
13460.74023 0.04071
13461.83008 0.042183
13462.91992 0.043655
13464.01953 0.045394
13465.11035 0.047728
13466.20020 0.050063
13467.29004 0.052397
13468.38965 0.054732
13469.48047 0.057067
13470.57031 0.059402
13471.66016 0.061737
13472.75977 0.064072
13473.84961 0.066558
13474.94043 0.069887
13476.04004 0.073219
13477.12988 0.076548
13478.21973 0.079879
13479.32031 0.083207
13480.41016 0.086537
13481.50000 0.089868
13482.59961 0.093198
13483.69043 0.096533
13484.78027 0.101079
13485.87988 0.105625
13486.96973 0.11017
13488.07031 0.114719
13489.16016 0.119264
13490.25000 0.123812
13491.34961 0.128356
13492.44043 0.132903
13493.54004 0.13745
13494.62988 0.143389
13495.73047 0.149551
13496.82031 0.155712
13497.91992 0.161873
13499.00977 0.168033
13500.11035 0.174199
13501.20020 0.180372
13502.29980 0.186551
13503.38965 0.192724
13504.49023 0.1999
13505.58008 0.207453
13506.67969 0.215005
13507.78027 0.222558
13508.87012 0.230112
13509.96973 0.237666
13511.05957 0.245199
13512.16016 0.25273
13513.25000 0.260268
13514.34961 0.268097
13515.45020 0.276135
13516.54004 0.284171
13517.63965 0.292206
13518.74023 0.30024
13519.83008 0.308273
13520.92969 0.316305
13522.03027 0.324336
13523.12012 0.332367
13524.21973 0.340021
13525.32031 0.347272
13526.41992 0.354515
13527.50977 0.361764
13528.61035 0.369011
13529.70996 0.376258
13530.79980 0.383498
13531.90039 0.390743
13533.00000 0.397993
13534.09961 0.404616
13535.20020 0.410149
13536.29004 0.415682
13537.38965 0.421218
13538.49023 0.42675
13539.58984 0.432285
13540.69043 0.437819
13541.79004 0.443353
13542.87988 0.448882
13543.98047 0.454043
13545.08008 0.458126
13546.17969 0.462204
13547.28027 0.466281
13548.37988 0.470358
13549.48047 0.474438
13550.58008 0.478514
13551.67969 0.482593
13552.78027 0.486672
13553.87012 0.490437
13554.96973 0.49249
13556.07031 0.494543
13557.16992 0.496599
13558.26953 0.498652
13559.37012 0.500705
13560.46973 0.502758
13561.57031 0.504812
13562.66992 0.506864
13563.76953 0.508859
13564.87012 0.509925
13565.96973 0.510991
13567.08008 0.512057
13568.17969 0.513123
13569.28027 0.514188
13570.37988 0.515269
13571.48047 0.516381
13572.58008 0.517494
13573.67969 0.518606
13574.78027 0.518926
13575.87988 0.519222
13576.98047 0.519519
13578.08008 0.519815
13579.19043 0.520112
13580.29004 0.520396
13581.38965 0.520646
13582.49023 0.520896
13583.58984 0.521145
13584.70020 0.521253
13585.79980 0.521343
13586.90039 0.521433
13588.00000 0.521523
13589.09961 0.521613
13590.20996 0.521703
13591.30957 0.521792
13592.41016 0.521883
13593.50977 0.521972
13594.62012 0.521877
13595.71973 0.52174
13596.82031 0.521602
13597.91992 0.521465
13599.03027 0.521328
13600.12988 0.521177
13601.23047 0.520932
13602.33984 0.520686
13603.44043 0.52044
13604.54004 0.520186
13605.65039 0.519928
13606.75000 0.51967
13607.86035 0.519413
13608.95996 0.519155
13610.05957 0.518898
13611.16992 0.51864
13612.26953 0.518382
13613.37988 0.518125
13614.48047 0.518121
13615.58984 0.518231
13616.69043 0.518341
13617.79004 0.518451
13618.90039 0.518561
13620.00000 0.518671
13621.11035 0.51878
13622.20996 0.51889
13623.32031 0.518999
13624.41992 0.519004
13625.53027 0.518948
13626.62988 0.518892
13627.74023 0.518836
13628.84961 0.51878
13629.95020 0.518724
13631.05957 0.518668
13632.16016 0.518612
13633.26953 0.518556
13634.37988 0.518449
13635.48047 0.518308
13636.58984 0.518166
13637.69043 0.518024
13638.79980 0.517883
13639.91016 0.517741
13641.00977 0.5176
13642.12012 0.517458
13643.23047 0.517316
13644.33008 0.517314
13645.44043 0.517428
13646.54980 0.517543
13647.65039 0.517657
13648.75977 0.517771
13649.87012 0.517884
13650.96973 0.518039
13652.08008 0.5182
13653.19043 0.518361
13654.29980 0.518481
13655.41016 0.518562
13656.50977 0.518643
13657.62012 0.518725
13658.73047 0.518805
13659.83984 0.518886
13660.94043 0.518927
13662.04980 0.518961
13663.16016 0.518995
13664.26953 0.518905
13665.37988 0.518684
13666.49023 0.518462
13667.59961 0.51824
13668.70020 0.518019
13669.80957 0.517797
13670.91992 0.517576
13672.03027 0.517354
13673.13965 0.517133
13674.25000 0.517043
13675.36035 0.517107
13676.46973 0.51717
13677.58008 0.517234
13678.69043 0.517298
13679.79980 0.517361
13680.91016 0.517424
13682.01953 0.517488
13683.12988 0.517551
13684.24023 0.517552
13685.34961 0.517475
13686.45996 0.517399
13687.57031 0.517323
13688.67969 0.517246
13689.79004 0.51717
13690.90039 0.517093
13692.00977 0.517017
13693.12012 0.516941
13694.23047 0.516824
13695.33984 0.516657
13696.45020 0.51649
13697.55957 0.516323
13698.66992 0.516155
13699.79004 0.515988
13700.90039 0.515821
13702.00977 0.515654
13703.12012 0.515487
13704.23047 0.515299
13705.33984 0.515084
13706.45996 0.514868
13707.57031 0.514653
13708.67969 0.514438
13709.79004 0.514223
13710.90039 0.514008
13712.01953 0.513793
13713.12988 0.513578
13714.24023 0.513437
13715.34961 0.513391
13716.46973 0.513344
13717.58008 0.513298
13718.69043 0.513252
13719.79980 0.513205
13720.91992 0.513159
13722.03027 0.513112
13723.13965 0.513065
13724.25977 0.512945
13725.37012 0.512736
13726.48047 0.512527
13727.59961 0.512318
13728.70996 0.512109
13729.82031 0.5119
13730.94043 0.511692
13732.04980 0.511483
13733.16992 0.511274
13734.28027 0.511111
13735.38965 0.510998
13736.50977 0.510885
13737.62012 0.510773
13738.74023 0.51066
13739.84961 0.510547
13740.96973 0.510475
13742.08008 0.510409
13743.20020 0.510343
13744.30957 0.510238
13745.42969 0.510094
13746.54004 0.50995
13747.66016 0.509806
13748.76953 0.509661
13749.88965 0.509517
13751.00000 0.509331
13752.12012 0.509141
13753.23047 0.50895
13754.34961 0.508766
13755.45996 0.508587
13756.58008 0.508409
13757.70020 0.50823
13758.80957 0.508052
13759.92969 0.507873
13761.04004 0.507695
13762.16016 0.507517
13763.28027 0.507338
13764.38965 0.50713
13765.50977 0.506897
13766.62988 0.506665
13767.74023 0.506433
13768.86035 0.506201
13769.98047 0.505969
13771.08984 0.505738
13772.20996 0.505506
13773.33008 0.505274
13774.45020 0.505159
13775.55957 0.505118
13776.67969 0.505077
13777.79980 0.505036
13778.91992 0.504995
13780.03027 0.504954
13781.15039 0.504913
13782.26953 0.504872
13783.38965 0.504831
13784.50977 0.504711
13785.62012 0.504551
13786.74023 0.50439
13787.86035 0.50423
13788.98047 0.50407
13790.09961 0.50391
13791.21973 0.503749
13792.33984 0.503589
13793.45996 0.503429
13794.57031 0.503333
13795.69043 0.503262
13796.80957 0.503191
13797.92969 0.50312
13799.04980 0.503049
13800.16992 0.502983
13801.29004 0.502944
13802.41016 0.502905
13803.53027 0.502867
13804.65039 0.502694
13805.76953 0.502483
13806.88965 0.502272
13808.00977 0.502061
13809.12988 0.501851
13810.25000 0.50164
13811.37012 0.50143
13812.49023 0.501219
13813.61035 0.501009
13814.73047 0.50094
13815.84961 0.500895
13816.96973 0.500851
13818.08984 0.500806
13819.20996 0.500762
13820.33008 0.500717
13821.45996 0.500673
13822.58008 0.500628
13823.70020 0.500584
13824.82031 0.500528
13825.94043 0.500472
13827.05957 0.500415
13828.17969 0.500359
13829.30957 0.500302
13830.42969 0.500331
13831.54980 0.500497
13832.66992 0.500664
13833.79004 0.50083
13834.91992 0.500961
13836.04004 0.501091
13837.16016 0.501223
13838.28027 0.501354
13839.41016 0.501485
13840.53027 0.501616
13841.65039 0.501747
13842.78027 0.501878
13843.90039 0.502023
13845.01953 0.502284
13846.13965 0.502546
13847.26953 0.502808
13848.38965 0.503071
13849.50977 0.503333
13850.63965 0.503622
13851.75977 0.503931
13852.87988 0.504239
13854.00977 0.504536
13855.12988 0.50478
13856.25977 0.505023
13857.37988 0.505267
13858.50000 0.505511
13859.62988 0.505755
13860.75000 0.505969
13861.87988 0.506166
13863.00000 0.506364
13864.12988 0.506508
13865.25000 0.506527
13866.37988 0.506546
13867.50000 0.506564
13868.62988 0.506583
13869.75000 0.506601
13870.87988 0.50662
13872.00000 0.506638
13873.12988 0.506657
13874.25000 0.506776
13875.37988 0.50704
13876.50000 0.507304
13877.62988 0.507568
13878.75000 0.507833
13879.87988 0.508097
13881.00977 0.508362
13882.12988 0.508627
13883.25977 0.508892
13884.38965 0.509198
13885.50977 0.509541
13886.63965 0.509884
13887.75977 0.510228
13888.88965 0.510571
13890.01953 0.510915
13891.13965 0.511259
13892.26953 0.511603
13893.40039 0.511947
13894.53027 0.512233
13895.65039 0.512487
13896.78027 0.512742
13897.91016 0.512996
13899.04004 0.51325
13900.16016 0.513504
13901.29004 0.513759
13902.41992 0.514014
13903.54980 0.514269
13904.66992 0.514327
13905.79980 0.514328
13906.92969 0.514329
13908.05957 0.514329
13909.19043 0.51433
13910.30957 0.514331
13911.44043 0.514332
13912.57031 0.514333
13913.70020 0.514333
13914.83008 0.514543
13915.95996 0.514774
13917.08984 0.515005
13918.21973 0.515237
13919.33984 0.515468
13920.46973 0.515699
13921.59961 0.51593
13922.73047 0.516162
13923.86035 0.516401
13924.99023 0.516784
13926.12012 0.517168
13927.25000 0.517552
13928.37988 0.517936
13929.50977 0.518321
13930.63965 0.518705
13931.76953 0.519089
13932.90039 0.519474
13934.03027 0.519795
13935.16016 0.519857
13936.29004 0.519919
13937.41992 0.519981
13938.54980 0.520043
13939.67969 0.520105
13940.80957 0.520167
13941.95020 0.520229
13943.08008 0.520291
13944.20996 0.520377
13945.33984 0.520506
13946.46973 0.520635
13947.59961 0.520764
13948.73047 0.520894
13949.86035 0.521023
13951.00000 0.521152
13952.12988 0.521282
13953.25977 0.521411
13954.38965 0.521637
13955.51953 0.521956
13956.66016 0.522276
13957.79004 0.522596
13958.91992 0.522915
13960.04980 0.523235
13961.17969 0.523555
13962.32031 0.523875
13963.45020 0.524196
13964.58008 0.524412
13965.71973 0.524579
13966.84961 0.524746
13967.98047 0.524913
13969.12012 0.52508
13970.25000 0.525247
13971.37988 0.525414
13972.50977 0.525582
13973.65039 0.525749
13974.78027 0.526057
13975.91992 0.526391
13977.04980 0.526725
13978.17969 0.527059
13979.32031 0.527393
13980.45020 0.527727
13981.58008 0.528061
13982.71973 0.528396
13983.84961 0.528721
13984.99023 0.528729
13986.12012 0.528736
13987.25977 0.528744
13988.38965 0.528751
13989.53027 0.528758
13990.66016 0.528765
13991.79980 0.528773
13992.92969 0.52878
13994.07031 0.528791
13995.20020 0.528817
13996.33984 0.528842
13997.46973 0.528868
13998.61035 0.528894
13999.74023 0.528919
14000.87988 0.528899
14002.01953 0.528866
14003.15039 0.528832
14004.29004 0.528839
14005.41992 0.528905
14006.55957 0.528971
14007.70020 0.529037
14008.83008 0.529103
14009.96973 0.529169
14011.09961 0.529235
14012.24023 0.529301
14013.37988 0.529367
14014.50977 0.529501
14015.65039 0.529679
14016.79004 0.529857
14017.92969 0.530035
14019.05957 0.530213
14020.20020 0.530391
14021.33984 0.530569
14022.48047 0.530748
14023.61035 0.530926
14024.75000 0.531074
14025.88965 0.531215
14027.03027 0.531356
14028.16016 0.531497
14029.29980 0.531638
14030.44043 0.531779
14031.58008 0.53192
14032.71973 0.532061
14033.84961 0.532201
14034.99023 0.532261
14036.12988 0.532322
14037.26953 0.532382
14038.41016 0.532442
14039.54980 0.532502
14040.69043 0.532562
14041.83008 0.532622
14042.95996 0.532683
14044.09961 0.532782
14045.24023 0.533011
14046.37988 0.53324
14047.51953 0.533469
14048.66016 0.533698
14049.79980 0.533927
14050.94043 0.534157
14052.08008 0.534386
14053.21973 0.534615
14054.36035 0.534793
14055.50000 0.53491
14056.63965 0.535027
14057.78027 0.535144
14058.91992 0.53526
14060.05957 0.535377
14061.20020 0.535494
14062.33984 0.535611
14063.48047 0.535728
14064.62988 0.535875
14065.76953 0.536036
14066.91016 0.536197
14068.04980 0.536358
14069.19043 0.536519
14070.33008 0.536694
14071.46973 0.536906
14072.61035 0.537117
14073.75977 0.537328
14074.90039 0.537343
14076.04004 0.537341
14077.17969 0.537338
14078.32031 0.537336
14079.45996 0.537334
14080.61035 0.537305
14081.75000 0.537252
14082.88965 0.5372
14084.03027 0.537102
14085.17969 0.536772
14086.32031 0.536443
14087.45996 0.536113
14088.61035 0.535783
14089.75000 0.535453
14090.88965 0.535122
14092.03027 0.534792
14093.17969 0.534462
14094.32031 0.534059
14095.45996 0.533551
14096.61035 0.533044
14097.75000 0.532536
14098.88965 0.532029
14100.04004 0.531521
14101.17969 0.531013
14102.33008 0.530505
14103.46973 0.529996
14104.61035 0.528779
14105.75977 0.527202
14106.90039 0.525626
14108.04980 0.524048
14109.19043 0.52247
14110.33984 0.520891
14111.48047 0.519312
14112.62988 0.517731
14113.76953 0.516151
14114.91992 0.513618
14116.05957 0.511004
14117.20996 0.508392
14118.34961 0.505777
14119.50000 0.503161
14120.63965 0.500545
14121.79004 0.497928
14122.92969 0.49531
14124.08008 0.492407
14125.21973 0.488286
14126.37012 0.484161
14127.51953 0.480038
14128.66016 0.475911
14129.80957 0.471786
14130.95020 0.467657
14132.09961 0.463527
14133.25000 0.459397
14134.38965 0.454372
14135.54004 0.448308
14136.69043 0.442243
14137.83008 0.436171
14138.98047 0.430104
14140.12988 0.424029
14141.26953 0.417959
14142.41992 0.411881
14143.57031 0.405803
14144.71973 0.399421
14145.86035 0.392933
14147.00977 0.386444
14148.16016 0.379953
14149.30957 0.373461
14150.45996 0.366962
14151.59961 0.360466
14152.75000 0.353964
14153.90039 0.347451
14155.04980 0.340379
14156.20020 0.333305
14157.33984 0.326229
14158.49023 0.319152
14159.63965 0.312073
14160.79004 0.304993
14161.94043 0.297905
14163.08984 0.290821
14164.24023 0.283785
14165.37988 0.27687
14166.53027 0.269948
14167.67969 0.263024
14168.83008 0.256099
14169.98047 0.249173
14171.12988 0.242244
14172.28027 0.235314
14173.42969 0.228383
14174.58008 0.221951
14175.73047 0.21584
14176.87988 0.209723
14178.03027 0.203609
14179.17969 0.197489
14180.33008 0.191368
14181.48047 0.185245
14182.62988 0.179121
14183.78027 0.172995
14184.92969 0.16758
14186.08008 0.162222
14187.23047 0.156868
14188.38965 0.151508
14189.54004 0.146152
14190.69043 0.140781
14191.83984 0.135405
14192.99023 0.130029
14194.13965 0.125042
14195.29004 0.12137
14196.44043 0.117699
14197.59961 0.114027
14198.75000 0.110353
14199.90039 0.106681
14201.04980 0.103005
14202.20020 0.099331
14203.36035 0.095655
14204.50977 0.092425
14205.66016 0.08957
14206.80957 0.086714
14207.95996 0.083859
14209.12012 0.081004
14210.26953 0.078146
14211.41992 0.07529
14212.58008 0.072432
14213.73047 0.069577
14214.87988 0.067366
14216.04004 0.065257
14217.19043 0.063147
14218.33984 0.061038
14219.50000 0.058928
14220.65039 0.056818
14221.79980 0.054709
14222.95996 0.052597
14224.11035 0.050587
14225.25977 0.048994
14226.41992 0.047401
14227.57031 0.045808
14228.73047 0.044215
14229.87988 0.042622
14231.03027 0.041028
14232.19043 0.039434
14233.33984 0.03784
14234.50000 0.036487
14235.65039 0.035348
14236.80957 0.034211
14237.95996 0.033073
14239.12012 0.031936
14240.26953 0.030798
14241.42969 0.02966
14242.58008 0.028522
14243.74023 0.027383
14244.88965 0.026529
14246.04980 0.025719
14247.20996 0.024909
14248.36035 0.024098
14249.51953 0.023288
14250.66992 0.022477
14251.83008 0.021666
14252.99023 0.020855
14254.13965 0.020093
14255.29980 0.019513
14256.45020 0.018933
14257.61035 0.018353
14258.76953 0.017772
14259.91992 0.017192
14261.08008 0.016611
14262.24023 0.016031
14263.38965 0.01545
14264.54980 0.01496
14265.70996 0.01454
14266.87012 0.01412
14268.01953 0.0137
14269.17969 0.013279
14270.33984 0.012859
14271.50000 0.012438
14272.65039 0.012018
14273.80957 0.011597
14274.96973 0.01126
14276.12988 0.01093
14277.29004 0.010599
14278.44043 0.010269
14279.59961 0.009939
14280.75977 0.009608
14281.91992 0.009278
14283.08008 0.008947
14284.24023 0.008647
14285.40039 0.008419
14286.54980 0.008192
14287.70996 0.007965
14288.87012 0.007738
14290.03027 0.00751
14291.19043 0.007283
14292.34961 0.007056
14293.50977 0.006828
14294.66992 0.006631
14295.83008 0.006449
14296.99023 0.006267
14298.15039 0.006085
14299.30957 0.005904
14300.46973 0.005722
14301.62988 0.00554
14302.79004 0.005358
14303.95020 0.005178
14305.11035 0.005041
14306.26953 0.004903
14307.42969 0.004767
14308.58984 0.004629
14309.75000 0.004492
14310.91016 0.004355
14312.07031 0.004218
14313.23047 0.004081
14314.40039 0.003963
14315.55957 0.003871
14316.71973 0.003779
14317.87988 0.003688
14319.04004 0.003596
14320.20020 0.003504
14321.36035 0.003412
14322.53027 0.00332
14323.69043 0.003228
14324.84961 0.003142
14326.00977 0.003056
14327.16992 0.002971
14328.33984 0.002885
14329.50000 0.0028
14330.66016 0.002714
14331.82031 0.002629
14332.99023 0.002543
14334.15039 0.002458
14335.30957 0.002373
14336.46973 0.002287
14337.63965 0.002201
14338.79980 0.002116
14339.95996 0.00203
14341.12988 0.001945
14342.29004 0.001859
14343.45020 0.001773
14344.62012 0.001731
14345.78027 0.001716
14346.95020 0.001702
14348.11035 0.001688
14349.26953 0.001674
14350.44043 0.001659
14351.59961 0.001645
14352.76953 0.001631
14353.92969 0.001616
14355.08984 0.001571
14356.25977 0.001526
14357.41992 0.00148
14358.58984 0.001435
14359.75000 0.001389
14360.91992 0.001344
14362.08008 0.001298
14363.25000 0.001253
14364.41016 0.001221
14365.58008 0.001208
14366.74023 0.001195
14367.91016 0.001182
14369.07031 0.001169
14370.24023 0.001156
14371.41016 0.001143
14372.57031 0.00113
14373.74023 0.001117
14374.90039 0.001093
14376.07031 0.001067
14377.24023 0.001041
14378.40039 0.001015
14379.57031 0.000989
14380.74023 0.000963
14381.90039 0.000937
14383.07031 0.000911
14384.24023 0.000883
14385.40039 0.000851
14386.57031 0.000818
14387.74023 0.000786
14388.90039 0.000753
14390.07031 0.000721
14391.24023 0.000688
14392.41016 0.000655
14393.57031 0.000623
14394.74023 0.000613
14395.91016 0.000613
14397.08008 0.000613
14398.24023 0.000613
14399.41016 0.000613
14400.58008 0.000613
14401.75000 0.000613
14402.91992 0.000613
14404.08008 0.00061
14405.25000 0.000584
14406.41992 0.000558
14407.58984 0.000532
14408.75977 0.000505
14409.92969 0.000479
14411.09961 0.000453
14412.26953 0.000427
14413.44043 0.000401
15854.78418 0.0
