# %ECSV 0.9
# ---
# datatype:
# - {name: wavelength, unit: Angstrom, datatype: float32}
# - {name: response, datatype: float32}
# meta: !!omap
# - {band_name: F110W}
# - {group_name: WFC3_IR}
wavelength response
7855.70703 0.0
8728.56348 0.000401
8729.27148 0.000407
8729.97852 0.000414
8730.68652 0.00042
8731.39648 0.000426
8732.10352 0.000432
8732.81152 0.000436
8733.52148 0.000437
8734.22852 0.000438
8734.93652 0.00044
8735.64648 0.000441
8736.35352 0.000443
8737.06348 0.000444
8737.77246 0.000446
8738.48047 0.000447
8739.18945 0.000448
8739.89844 0.00045
8740.60742 0.000451
8741.31641 0.000453
8742.02539 0.000454
8742.73535 0.000459
8743.44434 0.000469
8744.15332 0.000478
8744.86328 0.000488
8745.57227 0.000498
8746.28223 0.000507
8746.99121 0.000517
8747.70117 0.000526
8748.41016 0.000536
8749.12012 0.000546
8749.83008 0.000555
8750.54004 0.000565
8751.25000 0.000575
8751.95996 0.000584
8752.66992 0.000597
8753.37988 0.000615
8754.08984 0.000633
8754.79980 0.00065
8755.50977 0.000668
8756.22070 0.000686
8756.93066 0.000704
8757.64062 0.000722
8758.35156 0.00074
8759.06152 0.000758
8759.77246 0.000776
8760.48340 0.000794
8761.19336 0.000811
8761.90430 0.000829
8762.61523 0.000847
8763.32617 0.000865
8764.03711 0.000883
8764.74805 0.000901
8765.45898 0.000919
8766.16992 0.000937
8766.88086 0.000955
8767.59277 0.000973
8768.30371 0.000992
8769.01465 0.00101
8769.72656 0.001028
8770.43848 0.001046
8771.14941 0.001064
8771.86035 0.001082
8772.57227 0.0011
8773.28418 0.001118
8773.99609 0.001136
8774.70703 0.001154
8775.41895 0.001172
8776.13086 0.00119
8776.84277 0.001209
8777.55469 0.001227
8778.26758 0.001245
8778.97852 0.001263
8779.69141 0.001281
8780.40332 0.001299
8781.11621 0.001318
8781.82812 0.001336
8782.54102 0.001356
8783.25293 0.001388
8783.96582 0.001419
8784.67871 0.001451
8785.39062 0.001482
8786.10352 0.001514
8786.81641 0.001545
8787.52930 0.001577
8788.24219 0.001608
8788.95508 0.00164
8789.66797 0.001672
8790.38086 0.001703
8791.09375 0.001735
8791.80762 0.001767
8792.52148 0.0018
8793.23340 0.001839
8793.94727 0.001878
8794.66016 0.001918
8795.37402 0.001957
8796.08789 0.001996
8796.80078 0.002036
8797.51465 0.002075
8798.22852 0.002115
8798.94238 0.002154
8799.65625 0.002194
8800.37012 0.002233
8801.08398 0.002273
8801.79785 0.002312
8802.51172 0.002354
8803.22559 0.002407
8803.93945 0.00246
8804.65430 0.002514
8805.36816 0.002567
8806.08301 0.00262
8806.79688 0.002674
8807.51172 0.002727
8808.22559 0.002781
8808.94043 0.002834
8809.65527 0.002888
8810.37012 0.002942
8811.08398 0.002995
8811.79883 0.003049
8812.51367 0.003105
8813.22852 0.003178
8813.94336 0.003251
8814.65918 0.003324
8815.37402 0.003397
8816.08887 0.003469
8816.80469 0.003542
8817.51953 0.003615
8818.23438 0.003688
8818.95020 0.003762
8819.66504 0.003835
8820.38086 0.003908
8821.09668 0.003981
8821.81348 0.004055
8822.52734 0.004133
8823.24316 0.004236
8823.95898 0.00434
8824.67480 0.004444
8825.39062 0.004548
8826.10645 0.004652
8826.82324 0.004756
8827.53906 0.00486
8828.25488 0.004965
8828.97168 0.005069
8829.68848 0.005174
8830.40332 0.005278
8831.12012 0.005384
8831.83691 0.005489
8832.55273 0.005601
8833.26953 0.00574
8833.98633 0.00588
8834.70312 0.006019
8835.41895 0.006159
8836.13574 0.006299
8836.85254 0.006439
8837.56934 0.006579
8838.28711 0.00672
8839.00391 0.00686
8839.72070 0.007001
8840.43848 0.007142
8841.15527 0.007283
8841.87207 0.007424
8842.58984 0.007576
8843.30664 0.007765
8844.02441 0.007955
8844.74121 0.008145
8845.45898 0.008336
8846.17676 0.008526
8846.89453 0.008717
8847.61230 0.008908
8848.33008 0.009099
8849.04785 0.00929
8849.76562 0.009482
8850.48340 0.009673
8851.20117 0.009865
8851.91895 0.010057
8852.63770 0.010268
8853.35547 0.010524
8854.07422 0.010781
8854.79199 0.011038
8855.51074 0.011295
8856.22852 0.011552
8856.94727 0.01181
8857.66602 0.012068
8858.38379 0.012326
8859.10254 0.012585
8859.82129 0.012843
8860.54004 0.013102
8861.25879 0.013362
8861.97754 0.013621
8862.69727 0.013911
8863.41602 0.014251
8864.13477 0.014591
8864.85352 0.014932
8865.57324 0.015273
8866.29199 0.015614
8867.01172 0.015956
8867.73047 0.016298
8868.45020 0.016641
8869.16992 0.016984
8869.88867 0.017327
8870.60840 0.01767
8871.32812 0.018014
8872.04785 0.018358
8872.76758 0.018747
8873.48730 0.019188
8874.20703 0.01963
8874.92676 0.020072
8875.64746 0.020515
8876.36719 0.020958
8877.08691 0.021401
8877.80762 0.021845
8878.52734 0.022289
8879.24805 0.022734
8879.96777 0.023179
8880.68848 0.023624
8881.40918 0.024071
8882.12891 0.024517
8882.84961 0.025035
8883.57031 0.025607
8884.29102 0.026179
8885.01172 0.026752
8885.73242 0.027326
8886.45312 0.0279
8887.17480 0.028475
8887.89648 0.02905
8888.61621 0.029626
8889.33691 0.030202
8890.05859 0.030779
8890.77930 0.031356
8891.50098 0.031935
8892.22266 0.032514
8892.94336 0.033206
8893.66504 0.033948
8894.38672 0.034691
8895.10840 0.035435
8895.83008 0.03618
8896.55078 0.036924
8897.27344 0.037671
8897.99512 0.038417
8898.71680 0.039164
8899.43848 0.039912
8900.16016 0.040658
8900.88281 0.041397
8901.60352 0.042134
8902.32617 0.042872
8903.04883 0.043743
8903.77148 0.044638
8904.49316 0.045535
8905.21582 0.046432
8905.93848 0.047329
8906.66016 0.048226
8907.38281 0.049124
8908.10547 0.050022
8908.82812 0.050921
8909.55078 0.05182
8910.27344 0.052719
8910.99707 0.05362
8911.71973 0.05452
8912.44238 0.05542
8913.16504 0.056448
8913.88867 0.057479
8914.61133 0.058509
8915.33496 0.05954
8916.05762 0.060571
8916.78125 0.061603
8917.50488 0.062636
8918.22852 0.063669
8918.95117 0.0647
8919.67480 0.065734
8920.39844 0.06677
8921.12207 0.067809
8921.84570 0.068848
8922.56934 0.069913
8923.29395 0.071114
8924.01758 0.072314
8924.74121 0.073514
8925.46582 0.074716
8926.18945 0.075917
8926.91309 0.077119
8927.63770 0.078323
8928.36230 0.079527
8929.08594 0.080731
8929.81055 0.081936
8930.53516 0.083139
8931.25977 0.08434
8931.98438 0.085542
8932.70898 0.086809
8933.43359 0.088195
8934.15820 0.08958
8934.88281 0.090967
8935.60742 0.092354
8936.33203 0.093741
8937.05762 0.09513
8937.78223 0.096519
8938.50781 0.097909
8939.23242 0.099298
8939.95801 0.10069
8940.68262 0.10208
8941.40820 0.103473
8942.13379 0.104866
8942.85938 0.106336
8943.58398 0.107865
8944.30957 0.109396
8945.03516 0.110928
8945.76074 0.112461
8946.48730 0.113996
8947.21289 0.11553
8947.93848 0.117064
8948.66406 0.118599
8949.39062 0.120136
8950.11621 0.121673
8950.84277 0.123219
8951.56836 0.124763
8952.29492 0.12631
8953.02148 0.127938
8953.74707 0.129591
8954.47363 0.131245
8955.20020 0.132901
8955.92676 0.134556
8956.65332 0.136213
8957.37988 0.137871
8958.10645 0.139529
8958.83301 0.141188
8959.55957 0.142847
8960.28613 0.144505
8961.01367 0.146159
8961.74023 0.147812
8962.46680 0.149467
8963.19434 0.151211
8963.92188 0.152956
8964.64844 0.154699
8965.37598 0.156445
8966.10352 0.158191
8966.83008 0.159936
8967.55762 0.161684
8968.28516 0.163432
8969.01270 0.165182
8969.74023 0.166931
8970.46777 0.168688
8971.19629 0.170452
8971.92383 0.172214
8972.65137 0.173992
8973.37891 0.175817
8974.10742 0.177644
8974.83496 0.17947
8975.56348 0.1813
8976.29102 0.183127
8977.01953 0.184958
8977.74805 0.18679
8978.47656 0.188623
8979.20410 0.190454
8979.93262 0.192288
8980.66113 0.194113
8981.38965 0.195937
8982.11816 0.197762
8982.84766 0.199586
8983.57617 0.201405
8984.30469 0.203224
8985.03320 0.205043
8985.76270 0.206866
8986.49121 0.208687
8987.22070 0.210511
8987.94922 0.212333
8988.67871 0.214158
8989.40723 0.215982
8990.13672 0.217808
8990.86621 0.219636
8991.59570 0.221463
8992.32520 0.223292
8993.05469 0.225064
8993.78418 0.226822
8994.51367 0.228581
8995.24316 0.230341
8995.97266 0.232101
8996.70312 0.233865
8997.43262 0.235626
8998.16211 0.237388
8998.89258 0.239153
8999.62207 0.240917
9000.35254 0.242671
9001.08301 0.244411
9001.81152 0.246149
9002.54297 0.247878
9003.27344 0.249507
9004.00391 0.251135
9004.73438 0.252764
9005.46484 0.254393
9006.19531 0.256022
9006.92578 0.257651
9007.65625 0.259281
9008.38770 0.260913
9009.11816 0.262543
9009.84863 0.264173
9010.58008 0.265793
9011.31055 0.267408
9012.04199 0.269024
9012.77246 0.270569
9013.50391 0.272013
9014.23535 0.273457
9014.96680 0.274902
9015.69824 0.276346
9016.42871 0.277788
9017.16016 0.279232
9017.89160 0.280677
9018.62402 0.282123
9019.35547 0.283568
9020.08691 0.285014
9020.81836 0.286476
9021.55078 0.28794
9022.28223 0.289403
9023.01465 0.290754
9023.74609 0.292063
9024.47852 0.293374
9025.20996 0.294683
9025.94238 0.295994
9026.67480 0.297305
9027.40723 0.298617
9028.13965 0.299928
9028.87207 0.30124
9029.60352 0.302552
9030.33691 0.303864
9031.06934 0.305177
9031.80176 0.306491
9032.53418 0.307788
9033.26758 0.308889
9034.00000 0.309989
9034.73242 0.311089
9035.46582 0.31219
9036.19922 0.313292
9036.93164 0.314392
9037.66504 0.315494
9038.39844 0.316596
9039.13086 0.317697
9039.86426 0.3188
9040.59766 0.319903
9041.33105 0.321006
9042.06445 0.322109
9042.79785 0.323109
9043.53223 0.323972
9044.26562 0.324834
9044.99902 0.325697
9045.73242 0.326559
9046.46680 0.327423
9047.20020 0.328286
9047.93457 0.32915
9048.66895 0.330014
9049.40234 0.330877
9050.13672 0.331746
9050.87109 0.332631
9051.60547 0.333516
9052.33887 0.334401
9053.07324 0.335097
9053.80762 0.335745
9054.54297 0.336395
9055.27734 0.337045
9056.01172 0.337694
9056.74609 0.338344
9057.48145 0.338994
9058.21582 0.339644
9058.95020 0.340294
9059.68555 0.340945
9060.42090 0.341585
9061.15527 0.342215
9061.89062 0.342846
9062.62598 0.343441
9063.36035 0.343882
9064.09570 0.344324
9064.83105 0.344766
9065.56641 0.345208
9066.30176 0.34565
9067.03809 0.346093
9067.77344 0.346535
9068.50879 0.346977
9069.24414 0.34742
9069.98047 0.347863
9070.71582 0.348326
9071.45215 0.348791
9072.18652 0.349255
9072.92383 0.349605
9073.65918 0.349874
9074.39648 0.350144
9075.13184 0.350414
9075.86816 0.350683
9076.60352 0.350953
9077.34082 0.351223
9078.07715 0.351493
9078.81348 0.351764
9079.54980 0.352034
9080.28613 0.352296
9081.02344 0.352545
9081.75977 0.352794
9082.49609 0.353042
9083.23340 0.353136
9083.96973 0.353229
9084.70703 0.353322
9085.44434 0.353416
9086.18066 0.353509
9086.91797 0.353602
9087.65527 0.353696
9088.39258 0.353789
9089.12988 0.353883
9089.86719 0.353976
9090.60352 0.35407
9091.34180 0.354164
9092.07910 0.354258
9092.81738 0.354304
9093.55469 0.354288
9094.29199 0.354272
9095.03027 0.354256
9095.76758 0.35424
9096.50586 0.354224
9097.24414 0.354207
9097.98145 0.354191
9098.71973 0.354175
9099.45801 0.354159
9100.19629 0.354149
9100.93457 0.354155
9101.67285 0.35416
9102.41113 0.354166
9103.14941 0.354121
9103.88770 0.354069
9104.62598 0.354017
9105.36523 0.353965
9106.10352 0.353913
9106.84277 0.353861
9107.58105 0.353809
9108.32031 0.353757
9109.05859 0.353705
9109.79785 0.353652
9110.53711 0.353585
9111.27539 0.353511
9112.01465 0.353437
9112.75391 0.353363
9113.49316 0.353285
9114.23242 0.353208
9114.97168 0.35313
9115.71191 0.353053
9116.45117 0.352975
9117.19043 0.352898
9117.93066 0.35282
9118.66992 0.352743
9119.40918 0.352665
9120.14941 0.352592
9120.88965 0.352536
9121.62891 0.352481
9122.36914 0.352425
9123.10938 0.352386
9123.84961 0.352352
9124.58984 0.352317
9125.32910 0.352282
9126.07031 0.352247
9126.81055 0.352212
9127.55078 0.352177
9128.29102 0.352142
9129.03125 0.352107
9129.77246 0.352072
9130.51270 0.352022
9131.25391 0.351966
9131.99414 0.351909
9132.73535 0.351867
9133.47559 0.351855
9134.21680 0.351843
9134.95801 0.351831
9135.69922 0.35182
9136.43945 0.351808
9137.18066 0.351796
9137.92188 0.351784
9138.66406 0.351772
9139.40527 0.35176
9140.14648 0.351753
9140.88770 0.351763
9141.62988 0.351773
9142.37109 0.351784
9143.11230 0.351859
9143.85352 0.35195
9144.59570 0.352041
9145.33789 0.352132
9146.08008 0.352223
9146.82227 0.352314
9147.56348 0.352405
9148.30566 0.352496
9149.04785 0.352587
9149.79004 0.352678
9150.53223 0.352753
9151.27441 0.352823
9152.01758 0.352892
9152.75977 0.352996
9153.50195 0.353167
9154.24512 0.353338
9154.98730 0.35351
9155.72852 0.353681
9156.47266 0.353852
9157.21582 0.354024
9157.95801 0.354195
9158.70117 0.354367
9159.44434 0.354538
9160.18652 0.354715
9160.93066 0.354909
9161.67383 0.355103
9162.41699 0.355297
9163.16016 0.355572
9163.90332 0.355859
9164.64648 0.356147
9165.39062 0.356434
9166.13379 0.356722
9166.87695 0.357009
9167.62109 0.357297
9168.36426 0.357585
9169.10840 0.357873
9169.85254 0.358161
9170.59570 0.358431
9171.33984 0.358697
9172.08398 0.358964
9172.82812 0.359258
9173.57227 0.359593
9174.31641 0.359928
9175.06055 0.360263
9175.80469 0.360597
9176.54980 0.360933
9177.29395 0.361268
9178.03809 0.361602
9178.78320 0.361938
9179.52734 0.362273
9180.27246 0.362617
9181.01660 0.362975
9181.76172 0.363333
9182.50684 0.363692
9183.25098 0.364117
9183.99609 0.364543
9184.74121 0.364969
9185.48633 0.365396
9186.23145 0.365823
9186.97656 0.36625
9187.72168 0.366677
9188.46777 0.367104
9189.21289 0.367531
9189.95801 0.367959
9190.70410 0.368365
9191.44922 0.36877
9192.19531 0.369175
9192.94043 0.369603
9193.68652 0.370048
9194.43262 0.370493
9195.17773 0.370938
9195.92383 0.371384
9196.66992 0.371829
9197.41602 0.372275
9198.16211 0.372721
9198.90820 0.373167
9199.65430 0.373612
9200.40137 0.374061
9201.14746 0.374512
9201.89355 0.374963
9202.64062 0.375415
9203.38672 0.375868
9204.13379 0.376322
9204.87988 0.376775
9205.62695 0.377229
9206.37305 0.377682
9207.12012 0.378136
9207.86719 0.37859
9208.61426 0.379045
9209.36133 0.379499
9210.10840 0.37995
9210.85547 0.380381
9211.60254 0.380812
9212.34961 0.381243
9213.09766 0.381654
9213.84473 0.382057
9214.59180 0.382461
9215.33984 0.382865
9216.08691 0.383268
9216.83496 0.383672
9217.58203 0.384076
9218.33008 0.38448
9219.07812 0.384884
9219.82617 0.385288
9220.57422 0.385711
9221.32227 0.38614
9222.07031 0.386569
9222.81836 0.386977
9223.56641 0.387354
9224.31445 0.387732
9225.06348 0.388109
9225.81152 0.388486
9226.55957 0.388863
9227.30762 0.389241
9228.05664 0.389619
9228.80469 0.389996
9229.55371 0.390374
9230.30273 0.390753
9231.05176 0.391132
9231.79980 0.391512
9232.54883 0.39189
9233.29785 0.392197
9234.04688 0.392504
9234.79590 0.392811
9235.54492 0.393119
9236.29492 0.393426
9237.04395 0.393734
9237.79297 0.394041
9238.54297 0.394349
9239.29199 0.394657
9240.04199 0.394966
9240.79102 0.395299
9241.54102 0.395632
9242.29004 0.395965
9243.04004 0.396237
9243.79004 0.396479
9244.54004 0.396722
9245.29004 0.396964
9246.04004 0.397207
9246.79004 0.39745
9247.54004 0.397692
9248.29004 0.397935
9249.04004 0.398178
9249.79102 0.398421
9250.54102 0.398646
9251.29199 0.398865
9252.04199 0.399083
9252.79297 0.399266
9253.54297 0.39938
9254.29395 0.399494
9255.04492 0.399608
9255.79492 0.399722
9256.54590 0.399836
9257.29688 0.39995
9258.04785 0.400064
9258.79883 0.400179
9259.54980 0.400293
9260.30176 0.400418
9261.05273 0.400557
9261.80371 0.400697
9262.55566 0.400835
9263.30664 0.400873
9264.05762 0.400911
9264.80957 0.400949
9265.56152 0.400987
9266.31348 0.401025
9267.06445 0.401063
9267.81641 0.401101
9268.56836 0.401139
9269.32031 0.401177
9270.07227 0.401213
9270.82422 0.401226
9271.57617 0.401239
9272.32812 0.401252
9273.08008 0.401204
9273.83301 0.401132
9274.58496 0.40106
9275.33691 0.400988
9276.08984 0.400916
9276.84277 0.400844
9277.59473 0.400772
9278.34766 0.4007
9279.10059 0.400628
9279.85254 0.400556
9280.60547 0.400504
9281.35840 0.400458
9282.11133 0.400411
9282.86426 0.400338
9283.61719 0.400227
9284.37109 0.400117
9285.12402 0.400006
9285.87695 0.399895
9286.62988 0.399785
9287.38379 0.399674
9288.13672 0.399563
9288.89062 0.399452
9289.64453 0.399341
9290.39746 0.399217
9291.15137 0.399081
9291.90527 0.398945
9292.65918 0.398802
9293.41309 0.398623
9294.16699 0.398443
9294.92090 0.398264
9295.67480 0.398084
9296.42871 0.397905
9297.18262 0.397725
9297.93848 0.397545
9298.69141 0.397365
9299.44531 0.397186
9300.20020 0.397012
9300.95410 0.396858
9301.70898 0.396703
9302.46387 0.396548
9303.21875 0.396387
9303.97266 0.396226
9304.72754 0.396064
9305.48242 0.395902
9306.23730 0.395741
9306.99219 0.395579
9307.74707 0.395417
9308.50293 0.395255
9309.25781 0.395093
9310.01270 0.39493
9310.76758 0.394743
9311.52344 0.394555
9312.27832 0.394368
9313.03418 0.394196
9313.79004 0.394033
9314.54492 0.393869
9315.30078 0.393706
9316.05664 0.393542
9316.81348 0.393379
9317.56836 0.393215
9318.32422 0.393052
9319.08008 0.392888
9319.83594 0.392724
9320.59180 0.39258
9321.34766 0.392441
9322.10352 0.392302
9322.86035 0.392179
9323.61621 0.392082
9324.37305 0.391983
9325.12988 0.391885
9325.88574 0.391787
9326.64258 0.391689
9327.39941 0.391591
9328.15527 0.391493
9328.91211 0.391394
9329.66895 0.391296
9330.42578 0.391184
9331.18262 0.39106
9331.94043 0.390937
9332.69727 0.390829
9333.45410 0.390787
9334.21094 0.390746
9334.96875 0.390705
9335.72559 0.390664
9336.48340 0.390623
9337.24023 0.390582
9337.99805 0.39054
9338.75586 0.390499
9339.51270 0.390458
9340.27148 0.390426
9341.02832 0.390409
9341.78613 0.390393
9342.54395 0.390376
9343.30176 0.390451
9344.05957 0.390527
9344.81738 0.390604
9345.57617 0.390681
9346.33398 0.390757
9347.09180 0.390834
9347.85059 0.390911
9348.60840 0.390987
9349.36719 0.391064
9350.12598 0.391137
9350.88379 0.391189
9351.64258 0.39124
9352.40137 0.391292
9353.16016 0.391396
9353.91895 0.391513
9354.67773 0.391631
9355.43652 0.391748
9356.19531 0.391866
9356.95410 0.391984
9357.71387 0.392101
9358.47266 0.392219
9359.23145 0.392337
9359.99121 0.392455
9360.75000 0.392597
9361.50977 0.39274
9362.26953 0.392884
9363.02832 0.39307
9363.78809 0.393286
9364.54785 0.393501
9365.30762 0.393717
9366.06738 0.393932
9366.82715 0.394148
9367.58691 0.394364
9368.34668 0.39458
9369.10645 0.394795
9369.86719 0.395012
9370.62695 0.395207
9371.38672 0.395397
9372.14746 0.395588
9372.90723 0.395815
9373.66797 0.396089
9374.42871 0.396362
9375.18848 0.396635
9375.94922 0.396908
9376.70996 0.397181
9377.47070 0.397455
9378.23145 0.397728
9378.99219 0.398002
9379.75293 0.398275
9380.51367 0.398566
9381.27539 0.398866
9382.03613 0.399165
9382.79688 0.399478
9383.55859 0.399822
9384.31934 0.400166
9385.08105 0.40051
9385.84180 0.400854
9386.60352 0.401198
9387.36523 0.401543
9388.12598 0.401887
9388.88770 0.402232
9389.64941 0.402577
9390.41113 0.402922
9391.17285 0.403267
9391.93457 0.403613
9392.69727 0.403959
9393.45898 0.404304
9394.22070 0.40465
9394.98340 0.404996
9395.74512 0.405342
9396.50684 0.405689
9397.26953 0.406035
9398.03223 0.406382
9398.79395 0.406728
9399.55664 0.407075
9400.31934 0.407399
9401.08203 0.407691
9401.84473 0.407983
9402.60742 0.408274
9403.37012 0.408558
9404.13281 0.408841
9404.89648 0.409125
9405.65820 0.409409
9406.42188 0.409693
9407.18457 0.409976
9407.94824 0.41026
9408.71094 0.410544
9409.47461 0.410828
9410.23730 0.41112
9411.00098 0.411431
9411.76465 0.411741
9412.52832 0.412052
9413.29102 0.412345
9414.05469 0.412637
9414.81836 0.41293
9415.58301 0.413223
9416.34668 0.413515
9417.11035 0.413808
9417.87402 0.4141
9418.63867 0.414393
9419.40234 0.414686
9420.16602 0.414973
9420.93066 0.415239
9421.69531 0.415505
9422.45898 0.415772
9423.22363 0.415996
9423.98828 0.416211
9424.75293 0.416427
9425.51660 0.416643
9426.28125 0.416858
9427.04590 0.417074
9427.81152 0.41729
9428.57617 0.417506
9429.34082 0.417722
9430.10547 0.417944
9430.87109 0.418205
9431.63574 0.418466
9432.40039 0.418727
9433.16602 0.41893
9433.93164 0.419116
9434.69629 0.419301
9435.46191 0.419487
9436.22754 0.419673
9436.99316 0.419859
9437.75879 0.420044
9438.52441 0.42023
9439.29004 0.420416
9440.05566 0.4206
9440.82129 0.420758
9441.58691 0.420917
9442.35254 0.421076
9443.11914 0.421182
9443.88477 0.421265
9444.65137 0.421347
9445.41699 0.42143
9446.18359 0.421513
9446.95020 0.421595
9447.71582 0.421678
9448.48242 0.42176
9449.24902 0.421843
9450.01562 0.421926
9450.78223 0.422036
9451.54883 0.422146
9452.31543 0.422256
9453.08203 0.422316
9453.84961 0.422347
9454.61621 0.422378
9455.38281 0.422409
9456.15039 0.42244
9456.91699 0.422472
9457.68457 0.422503
9458.45215 0.422534
9459.21875 0.422565
9459.98633 0.422596
9460.75391 0.422627
9461.52148 0.422658
9462.28906 0.422689
9463.05664 0.422679
9463.82422 0.422642
9464.59180 0.422605
9465.35938 0.422567
9466.12793 0.42253
9466.89648 0.422493
9467.66309 0.422455
9468.43164 0.422418
9469.19922 0.422381
9469.96777 0.422343
9470.73633 0.422279
9471.50391 0.422214
9472.27246 0.422149
9473.04102 0.422056
9473.80957 0.421941
9474.57812 0.421826
9475.34668 0.421712
9476.11523 0.421597
9476.88379 0.421482
9477.65234 0.421368
9478.42188 0.421253
9479.19043 0.421138
9479.95996 0.421023
9480.72852 0.420934
9481.49805 0.420847
9482.26660 0.420759
9483.03613 0.420654
9483.80566 0.420536
9484.57520 0.420418
9485.34375 0.4203
9486.11328 0.420182
9486.88281 0.420063
9487.65234 0.419945
9488.42285 0.419826
9489.19238 0.419708
9489.96191 0.41959
9490.73145 0.419471
9491.50195 0.419352
9492.27148 0.419234
9493.04199 0.419115
9493.81152 0.418997
9494.58203 0.418878
9495.35254 0.41876
9496.12207 0.418641
9496.89258 0.418523
9497.66309 0.418404
9498.43359 0.418285
9499.20410 0.418167
9499.97461 0.418048
9500.74512 0.417898
9501.51660 0.417746
9502.28711 0.417595
9503.05762 0.417454
9503.82910 0.417321
9504.59961 0.417187
9505.37109 0.417054
9506.14160 0.416921
9506.91309 0.416787
9507.68457 0.416653
9508.45605 0.41652
9509.22656 0.416386
9509.99805 0.416253
9510.76953 0.416146
9511.54102 0.416039
9512.31348 0.415932
9513.08496 0.415838
9513.85645 0.415751
9514.62793 0.415664
9515.40039 0.415576
9516.17188 0.415489
9516.94434 0.415402
9517.71582 0.415315
9518.48828 0.415227
9519.25977 0.41514
9520.03223 0.415052
9520.80469 0.414937
9521.57715 0.414822
9522.34961 0.414708
9523.12207 0.414622
9523.89453 0.414552
9524.66699 0.414481
9525.43945 0.414411
9526.21289 0.41434
9526.98535 0.41427
9527.75781 0.4142
9528.53125 0.414129
9529.30371 0.414058
9530.07715 0.41399
9530.85059 0.413947
9531.62305 0.413903
9532.39648 0.413859
9533.16992 0.413873
9533.94336 0.413909
9534.71680 0.413945
9535.49023 0.413981
9536.26367 0.414017
9537.03711 0.414053
9537.81055 0.414089
9538.58496 0.414125
9539.35840 0.414162
9540.13184 0.414198
9540.90625 0.414234
9541.67969 0.414269
9542.45410 0.414305
9543.22852 0.414396
9544.00293 0.414501
9544.77637 0.414606
9545.55078 0.414711
9546.32520 0.414816
9547.09961 0.414921
9547.87402 0.415026
9548.64844 0.415131
9549.42383 0.415236
9550.19824 0.415334
9550.97266 0.415412
9551.74805 0.41549
9552.52246 0.415568
9553.29785 0.41568
9554.07227 0.415797
9554.84766 0.415914
9555.62305 0.416031
9556.39746 0.416148
9557.17285 0.416265
9557.94824 0.416382
9558.72363 0.416499
9559.49902 0.416617
9560.27441 0.416743
9561.04980 0.416888
9561.82617 0.417032
9562.60156 0.417177
9563.37695 0.417364
9564.15332 0.417553
9564.92871 0.417742
9565.70508 0.417931
9566.48047 0.41812
9567.25684 0.418309
9568.03320 0.418498
9568.80957 0.418687
9569.58496 0.418876
9570.36133 0.419065
9571.13770 0.419254
9571.91406 0.419444
9572.69141 0.419637
9573.46777 0.419869
9574.24414 0.420102
9575.02148 0.420334
9575.79785 0.420567
9576.57422 0.4208
9577.35156 0.421033
9578.12793 0.421266
9578.90527 0.421498
9579.68262 0.421732
9580.45898 0.421948
9581.23633 0.422153
9582.01367 0.422359
9582.79102 0.42257
9583.56836 0.422807
9584.34570 0.423043
9585.12402 0.42328
9585.90137 0.423517
9586.67871 0.423753
9587.45605 0.42399
9588.23438 0.424226
9589.01172 0.424463
9589.79004 0.4247
9590.56738 0.424957
9591.34570 0.425222
9592.12402 0.425487
9592.90234 0.425749
9593.68066 0.426008
9594.45898 0.426266
9595.23730 0.426524
9596.01562 0.426783
9596.79395 0.427042
9597.57227 0.427301
9598.35059 0.427559
9599.12988 0.427818
9599.90820 0.428077
9600.68652 0.428325
9601.46582 0.428572
9602.24512 0.428819
9603.02344 0.429045
9603.80273 0.429252
9604.58203 0.429459
9605.36133 0.429665
9606.13965 0.429872
9606.91895 0.430079
9607.69824 0.430285
9608.47852 0.430493
9609.25781 0.4307
9610.03711 0.430905
9610.81641 0.431083
9611.59668 0.431262
9612.37598 0.43144
9613.15625 0.431594
9613.93555 0.431735
9614.71582 0.431877
9615.49512 0.432019
9616.27539 0.43216
9617.05566 0.432302
9617.83594 0.432444
9618.61621 0.432585
9619.39648 0.432727
9620.17676 0.432875
9620.95703 0.433046
9621.73730 0.433216
9622.51855 0.433386
9623.29883 0.433518
9624.07910 0.433644
9624.86035 0.433769
9625.64062 0.433895
9626.42188 0.43402
9627.20312 0.434146
9627.98340 0.434271
9628.76465 0.434397
9629.54590 0.434523
9630.32715 0.434654
9631.10840 0.434793
9631.88965 0.434932
9632.67090 0.435069
9633.45215 0.435144
9634.23340 0.43522
9635.01562 0.435295
9635.79688 0.435371
9636.57910 0.435447
9637.36035 0.435522
9638.14258 0.435598
9638.92383 0.435673
9639.70605 0.435749
9640.48828 0.435806
9641.27148 0.435852
9642.05176 0.435899
9642.83398 0.435931
9643.61621 0.435919
9644.39941 0.435907
9645.18164 0.435895
9645.96387 0.435883
9646.74609 0.435872
9647.52930 0.43586
9648.31152 0.435848
9649.09375 0.435836
9649.87695 0.435824
9650.66016 0.435837
9651.44238 0.435854
9652.22559 0.43587
9653.00879 0.435856
9653.79199 0.435806
9654.57520 0.435756
9655.35840 0.435705
9656.14160 0.435655
9656.92480 0.435605
9657.70801 0.435554
9658.49121 0.435504
9659.27539 0.435453
9660.05859 0.435403
9660.84180 0.435352
9661.62598 0.435301
9662.41016 0.43525
9663.19336 0.435168
9663.97754 0.435073
9664.76172 0.434978
9665.54590 0.434882
9666.32910 0.434787
9667.11328 0.434691
9667.89746 0.434596
9668.68262 0.4345
9669.46680 0.434405
9670.25098 0.4343
9671.03516 0.434175
9671.82031 0.43405
9672.60352 0.433925
9673.38965 0.433785
9674.17383 0.433644
9674.95898 0.433504
9675.74316 0.433363
9676.52832 0.433222
9677.31348 0.433082
9678.09863 0.432941
9678.88379 0.4328
9679.66895 0.432659
9680.45410 0.432535
9681.23926 0.432422
9682.02441 0.43231
9682.81055 0.432195
9683.59570 0.432071
9684.38086 0.431947
9685.16699 0.431823
9685.95215 0.431699
9686.73828 0.431575
9687.52441 0.431451
9688.30957 0.431327
9689.09570 0.431202
9689.88184 0.431078
9690.66797 0.430953
9691.45410 0.430829
9692.24023 0.430704
9693.02637 0.430582
9693.81348 0.430462
9694.59961 0.430342
9695.38574 0.430222
9696.17188 0.430103
9696.95898 0.429983
9697.74512 0.429863
9698.53223 0.429743
9699.31934 0.429623
9700.10547 0.429499
9700.89258 0.42935
9701.67969 0.429201
9702.46680 0.429051
9703.25391 0.42892
9704.04102 0.428793
9704.82812 0.428667
9705.61523 0.428541
9706.40234 0.428414
9707.19043 0.428288
9707.97754 0.428161
9708.76562 0.428035
9709.55273 0.427909
9710.34082 0.427794
9711.12793 0.427696
9711.91602 0.427598
9712.70410 0.427501
9713.49219 0.427437
9714.27930 0.427372
9715.06738 0.427308
9715.85547 0.427243
9716.64355 0.427179
9717.43262 0.427114
9718.22070 0.42705
9719.00879 0.426985
9719.79785 0.42692
9720.58594 0.426855
9721.37402 0.42679
9722.16309 0.426725
9722.95215 0.426684
9723.74023 0.426684
9724.52930 0.426684
9725.31836 0.426684
9726.10742 0.426684
9726.89648 0.426684
9727.68555 0.426685
9728.47461 0.426685
9729.26367 0.426685
9730.05273 0.426683
9730.84180 0.426654
9731.63184 0.426625
9732.42090 0.426596
9733.21094 0.426609
9734.00000 0.426642
9734.79004 0.426674
9735.57910 0.426707
9736.36914 0.426739
9737.15918 0.426772
9737.94922 0.426804
9738.73926 0.426837
9739.52930 0.426869
9740.31934 0.426913
9741.10938 0.426974
9741.89941 0.427035
9742.68945 0.427097
9743.48047 0.427204
9744.27148 0.427312
9745.06055 0.427419
9745.85156 0.427527
9746.64160 0.427634
9747.43262 0.427742
9748.22363 0.42785
9749.01465 0.427957
9749.80469 0.428065
9750.59570 0.428172
9751.38672 0.428279
9752.17773 0.428387
9752.96973 0.428512
9753.76074 0.428667
9754.55176 0.428823
9755.34277 0.428978
9756.13477 0.429133
9756.92578 0.429289
9757.71777 0.429444
9758.50879 0.429599
9759.30078 0.429755
9760.09180 0.42991
9760.88379 0.430065
9761.67578 0.430221
9762.46777 0.430376
9763.25977 0.430549
9764.05176 0.430728
9764.84375 0.430907
9765.63574 0.431086
9766.42773 0.431265
9767.22070 0.431445
9768.01270 0.431624
9768.80469 0.431803
9769.59766 0.431983
9770.39062 0.432148
9771.18262 0.432297
9771.97559 0.432447
9772.76855 0.4326
9773.56055 0.432772
9774.35352 0.432945
9775.14648 0.433117
9775.93945 0.433289
9776.73242 0.433462
9777.52539 0.433634
9778.31934 0.433807
9779.11230 0.43398
9779.90527 0.434152
9780.69922 0.43435
9781.49219 0.434552
9782.28613 0.434754
9783.07910 0.434962
9783.87305 0.435177
9784.66699 0.435391
9785.46094 0.435606
9786.25391 0.435821
9787.04785 0.436036
9787.84180 0.43625
9788.63574 0.436465
9789.43066 0.436681
9790.22461 0.436896
9791.01855 0.43711
9791.81348 0.437325
9792.60742 0.43754
9793.40137 0.437742
9794.19629 0.437943
9794.99023 0.438144
9795.78516 0.438345
9796.58008 0.438546
9797.37500 0.438747
9798.16895 0.438948
9798.96387 0.439149
9799.75879 0.43935
9800.55371 0.439538
9801.34961 0.439721
9802.14453 0.439904
9802.93945 0.440075
9803.73438 0.440223
9804.53027 0.44037
9805.32520 0.440518
9806.12109 0.440666
9806.91602 0.440814
9807.71191 0.440962
9808.50781 0.44111
9809.30273 0.441258
9810.09863 0.441402
9810.89453 0.441519
9811.69043 0.441637
9812.48633 0.441754
9813.28223 0.441842
9814.07910 0.44192
9814.87500 0.441997
9815.67090 0.442075
9816.46777 0.442153
9817.26367 0.44223
9818.06055 0.442308
9818.85645 0.442385
9819.65332 0.442463
9820.44922 0.442557
9821.24609 0.442664
9822.04297 0.442771
9822.83984 0.442869
9823.63672 0.442922
9824.43359 0.442974
9825.23047 0.443028
9826.02734 0.44308
9826.82520 0.443133
9827.62207 0.443186
9828.41895 0.443239
9829.21680 0.443292
9830.01367 0.443345
9830.81152 0.443416
9831.60840 0.443487
9832.40625 0.443557
9833.20410 0.443591
9834.00195 0.443603
9834.79980 0.443616
9835.59766 0.443628
9836.39648 0.44364
9837.19336 0.443653
9837.99121 0.443665
9838.78906 0.443678
9839.58691 0.44369
9840.38574 0.443702
9841.18359 0.443714
9841.98242 0.443726
9842.78027 0.443733
9843.57910 0.443693
9844.37793 0.443653
9845.17578 0.443613
9845.97461 0.443573
9846.77344 0.443533
9847.57227 0.443493
9848.37109 0.443453
9849.16992 0.443413
9849.96875 0.443372
9850.76855 0.443302
9851.56738 0.443232
9852.36621 0.443161
9853.16602 0.443061
9853.96484 0.44294
9854.76465 0.44282
9855.56348 0.442699
9856.36328 0.442579
9857.16309 0.442458
9857.96289 0.442337
9858.76270 0.442217
9859.56152 0.442096
9860.36230 0.441989
9861.16211 0.441898
9861.96191 0.441807
9862.76172 0.441713
9863.56152 0.441585
9864.36230 0.441457
9865.16211 0.441329
9865.96289 0.441201
9866.76270 0.441073
9867.56348 0.440945
9868.36426 0.440816
9869.16406 0.440688
9869.96484 0.44056
9870.76562 0.440431
9871.56641 0.440302
9872.36719 0.440173
9873.16797 0.440034
9873.96875 0.439887
9874.76953 0.43974
9875.57129 0.439592
9876.37207 0.439445
9877.17383 0.439298
9877.97461 0.439151
9878.77637 0.439003
9879.57715 0.438856
9880.37891 0.438708
9881.18066 0.43856
9881.98145 0.438412
9882.78320 0.438263
9883.58496 0.438107
9884.38672 0.43795
9885.18848 0.437793
9885.99121 0.437636
9886.79297 0.437479
9887.59473 0.437322
9888.39648 0.437165
9889.19922 0.437008
9890.00098 0.436851
9890.80371 0.436663
9891.60645 0.436476
9892.40820 0.436288
9893.21094 0.436112
9894.01367 0.435942
9894.81641 0.435773
9895.61914 0.435604
9896.42188 0.435434
9897.22461 0.435265
9898.02734 0.435096
9898.83008 0.434926
9899.63281 0.434757
9900.43652 0.434603
9901.23926 0.434463
9902.04297 0.434323
9902.84570 0.434186
9903.64941 0.434063
9904.45312 0.43394
9905.25586 0.433817
9906.05957 0.433695
9906.86328 0.433572
9907.66699 0.433449
9908.47070 0.433326
9909.27441 0.433203
9910.07812 0.43308
9910.88281 0.432957
9911.68652 0.432833
9912.49023 0.432709
9913.29492 0.43263
9914.09863 0.432568
9914.90332 0.432506
9915.70703 0.432444
9916.51172 0.432382
9917.31641 0.43232
9918.12109 0.432258
9918.92480 0.432197
9919.72852 0.432135
9920.53418 0.432072
9921.33984 0.432009
9922.14453 0.431947
9922.94922 0.431899
9923.75391 0.43189
9924.55957 0.43188
9925.36426 0.431871
9926.16992 0.431862
9926.97461 0.431852
9927.78027 0.431843
9928.58496 0.431833
9929.39062 0.431824
9930.19629 0.431814
9931.00195 0.431804
9931.80762 0.431794
9932.61328 0.431784
9933.41895 0.431821
9934.22461 0.431864
9935.03027 0.431908
9935.83691 0.431952
9936.64258 0.431996
9937.44824 0.432039
9938.25488 0.432083
9939.06152 0.432127
9939.86719 0.432171
9940.67383 0.432189
9941.48047 0.432203
9942.28613 0.432216
9943.09277 0.432255
9943.89941 0.432324
9944.70605 0.432393
9945.51270 0.432461
9946.32031 0.43253
9947.12695 0.432599
9947.93359 0.432668
9948.74121 0.432737
9949.54785 0.432806
9950.35352 0.432888
9951.16211 0.432986
9951.96973 0.433084
9952.77637 0.433186
9953.58398 0.433342
9954.39160 0.433498
9955.19922 0.433654
9956.00684 0.433811
9956.81445 0.433967
9957.62207 0.434123
9958.42969 0.434279
9959.23730 0.434435
9960.04590 0.434592
9960.85352 0.434748
9961.66211 0.434903
9962.46973 0.435059
9963.27832 0.435248
9964.08594 0.435452
9964.89453 0.435657
9965.70312 0.435862
9966.51172 0.436066
9967.32031 0.436271
9968.12891 0.436476
9968.93652 0.436681
9969.74609 0.436885
9970.55469 0.43709
9971.36328 0.437294
9972.17188 0.437498
9972.98145 0.437711
9973.79004 0.437944
9974.59961 0.438177
9975.40820 0.43841
9976.21777 0.438643
9977.02734 0.438876
9977.83691 0.439109
9978.64648 0.439342
9979.45508 0.439575
9980.26465 0.439808
9981.07422 0.44004
9981.88379 0.440273
9982.69434 0.440506
9983.50391 0.440755
9984.31348 0.441004
9985.12402 0.441254
9985.93359 0.441504
9986.74414 0.441754
9987.55371 0.442004
9988.36426 0.442255
9989.17480 0.442505
9989.98438 0.442755
9990.79492 0.442974
9991.60547 0.443193
9992.41602 0.443412
9993.22656 0.443626
9994.03711 0.443838
9994.84863 0.444049
9995.65918 0.444261
9996.46973 0.444472
9997.28125 0.444684
9998.09180 0.444895
9998.90332 0.445106
9999.71387 0.445318
10000.53027 0.445562
10001.33984 0.445824
10002.15039 0.446086
10002.95996 0.446343
10003.76953 0.446583
10004.58008 0.446823
10005.38965 0.447063
10006.20996 0.447303
10007.01953 0.447543
10007.83008 0.447783
10008.63965 0.448023
10009.45020 0.448264
10010.25977 0.448504
10011.08008 0.448744
10011.88965 0.448984
10012.70020 0.449224
10013.50977 0.449427
10014.33008 0.449628
10015.13965 0.449829
10015.95020 0.450031
10016.75977 0.450232
10017.58008 0.450434
10018.38965 0.450635
10019.20020 0.450837
10020.00977 0.451038
10020.83008 0.45124
10021.63965 0.451441
10022.45020 0.451642
10023.26953 0.451816
10024.08008 0.451976
10024.88965 0.452135
10025.70996 0.452295
10026.51953 0.452454
10027.33008 0.452614
10028.15039 0.452774
10028.95996 0.452933
10029.76953 0.453093
10030.58984 0.453252
10031.40039 0.453412
10032.20996 0.453571
10033.03027 0.453706
10033.83984 0.453796
10034.66016 0.453885
10035.46973 0.453974
10036.28027 0.454063
10037.09961 0.454152
10037.91016 0.454241
10038.73047 0.45433
10039.54004 0.45442
10040.34961 0.454495
10041.16992 0.454552
10041.98047 0.454609
10042.79980 0.454661
10043.61035 0.454638
10044.42969 0.454615
10045.24023 0.454591
10046.05957 0.454568
10046.87012 0.454545
10047.69043 0.454522
10048.50000 0.454498
10049.32031 0.454475
10050.12988 0.454457
10050.95020 0.454465
10051.75977 0.454473
10052.58008 0.454481
10053.38965 0.454439
10054.20996 0.454384
10055.03027 0.454329
10055.83984 0.454273
10056.66016 0.454218
10057.46973 0.454163
10058.29004 0.454108
10059.11035 0.454052
10059.91992 0.453997
10060.74023 0.453941
10061.54980 0.453885
10062.37012 0.453829
10063.19043 0.453739
10064.00000 0.453618
10064.82031 0.453497
10065.62988 0.453377
10066.45020 0.453256
10067.26953 0.453135
10068.08008 0.453014
10068.90039 0.452893
10069.71973 0.452772
10070.54004 0.45265
10071.34961 0.452528
10072.16992 0.452406
10072.99023 0.452271
10073.79980 0.452099
10074.62012 0.451926
10075.44043 0.451754
10076.25977 0.451582
10077.07031 0.45141
10077.88965 0.451237
10078.70996 0.451065
10079.53027 0.450892
10080.33984 0.450719
10081.16016 0.450546
10081.98047 0.450373
10082.79980 0.450198
10083.61035 0.449985
10084.42969 0.449772
10085.25000 0.449559
10086.07031 0.449346
10086.88965 0.449133
10087.70996 0.44892
10088.51953 0.448706
10089.33984 0.448493
10090.16016 0.448279
10090.98047 0.448066
10091.79980 0.447851
10092.62012 0.447637
10093.42969 0.447398
10094.25000 0.447154
10095.07031 0.44691
10095.88965 0.446666
10096.70996 0.446421
10097.53027 0.446177
10098.34961 0.445933
10099.16992 0.445688
10099.99023 0.445443
10100.80957 0.445198
10101.62988 0.444952
10102.45020 0.444707
10103.25977 0.444476
10104.08008 0.444254
10104.90039 0.444032
10105.71973 0.44381
10106.54004 0.443588
10107.36035 0.443366
10108.17969 0.443144
10109.00000 0.442922
10109.82031 0.4427
10110.63965 0.442453
10111.45996 0.442198
10112.28027 0.441944
10113.09961 0.4417
10113.91992 0.44147
10114.75000 0.44124
10115.57031 0.44101
10116.38965 0.440781
10117.20996 0.440551
10118.03027 0.440321
10118.84961 0.440091
10119.66992 0.43986
10120.49023 0.439649
10121.30957 0.439449
10122.12988 0.439249
10122.95020 0.439057
10123.78027 0.438894
10124.59961 0.438731
10125.41992 0.438568
10126.24023 0.438405
10127.05957 0.438242
10127.87988 0.438078
10128.70020 0.437915
10129.53027 0.437752
10130.34961 0.437588
10131.16992 0.437424
10131.99023 0.43726
10132.80957 0.437098
10133.62988 0.436991
10134.45996 0.436883
10135.28027 0.436775
10136.09961 0.436667
10136.91992 0.43656
10137.75000 0.436452
10138.57031 0.436343
10139.38965 0.436235
10140.20996 0.436128
10141.04004 0.436019
10141.86035 0.43591
10142.67969 0.435802
10143.50000 0.435748
10144.33008 0.435701
10145.15039 0.435654
10145.96973 0.435607
10146.79980 0.435561
10147.62012 0.435514
10148.44043 0.435467
10149.26953 0.43542
10150.08984 0.435373
10150.91016 0.435326
10151.74023 0.435279
10152.55957 0.435231
10153.37988 0.435239
10154.20996 0.435267
10155.03027 0.435295
10155.84961 0.435323
10156.67969 0.435351
10157.50000 0.435379
10158.33008 0.435408
10159.15039 0.435436
10159.96973 0.435464
10160.79980 0.435491
10161.62012 0.435519
10162.45020 0.435547
10163.26953 0.435621
10164.09961 0.435729
10164.91992 0.435836
10165.75000 0.435944
10166.57031 0.436051
10167.38965 0.436159
10168.21973 0.436267
10169.04004 0.436374
10169.87012 0.436482
10170.69043 0.436589
10171.51953 0.436697
10172.33984 0.436804
10173.16992 0.436943
10173.99023 0.437119
10174.82031 0.437295
10175.65039 0.437471
10176.46973 0.437647
10177.29980 0.437823
10178.12012 0.437999
10178.95020 0.438175
10179.76953 0.438352
10180.59961 0.438505
10181.41992 0.43865
10182.25000 0.438795
10183.08008 0.438957
10183.90039 0.439152
10184.73047 0.439347
10185.55957 0.439543
10186.37988 0.439738
10187.20996 0.439933
10188.03027 0.440128
10188.86035 0.440323
10189.69043 0.440519
10190.50977 0.440733
10191.33984 0.440959
10192.16992 0.441186
10192.99023 0.441431
10193.82031 0.441735
10194.65039 0.44204
10195.46973 0.442344
10196.29980 0.442649
10197.12988 0.442953
10197.95996 0.443258
10198.78027 0.443563
10199.61035 0.443868
10200.44043 0.444174
10201.26953 0.444481
10202.08984 0.444789
10202.91992 0.445101
10203.75000 0.44544
10204.58008 0.445779
10205.40039 0.446118
10206.23047 0.446458
10207.05957 0.446797
10207.88965 0.447137
10208.71973 0.447477
10209.54004 0.447816
10210.37012 0.448156
10211.20020 0.448495
10212.03027 0.448835
10212.86035 0.449177
10213.69043 0.449546
10214.50977 0.449916
10215.33984 0.450285
10216.16992 0.450655
10217.00000 0.451025
10217.83008 0.451395
10218.66016 0.451764
10219.49023 0.452134
10220.32031 0.452504
10221.15039 0.452874
10221.96973 0.453244
10222.79980 0.453614
10223.62988 0.45399
10224.45996 0.454365
10225.29004 0.45474
10226.12012 0.455116
10226.95020 0.455491
10227.78027 0.455867
10228.61035 0.456242
10229.44043 0.456618
10230.26953 0.456994
10231.09961 0.45737
10231.92969 0.457746
10232.75977 0.458121
10233.58984 0.458474
10234.41992 0.458825
10235.25000 0.459176
10236.08008 0.459527
10236.91016 0.459879
10237.74023 0.46023
10238.57031 0.460582
10239.40039 0.460934
10240.23047 0.461285
10241.05957 0.461637
10241.90039 0.461988
10242.73047 0.46234
10243.55957 0.462673
10244.38965 0.463005
10245.21973 0.463337
10246.04980 0.463669
10246.87988 0.464001
10247.70996 0.464334
10248.54004 0.464666
10249.37988 0.464998
10250.20996 0.465331
10251.04004 0.465663
10251.87012 0.465996
10252.70020 0.466328
10253.53027 0.46662
10254.37012 0.466906
10255.20020 0.467191
10256.03027 0.467478
10256.86035 0.467764
10257.69043 0.46805
10258.51953 0.468336
10259.36035 0.468623
10260.19043 0.468909
10261.01953 0.469195
10261.84961 0.469482
10262.69043 0.469768
10263.51953 0.470005
10264.34961 0.470232
10265.17969 0.47046
10266.01953 0.470688
10266.84961 0.470915
10267.67969 0.471143
10268.51953 0.471372
10269.34961 0.4716
10270.17969 0.471828
10271.00977 0.472055
10271.84961 0.472283
10272.67969 0.472511
10273.50977 0.472681
10274.34961 0.47284
10275.17969 0.472999
10276.01953 0.473158
10276.84961 0.473318
10277.67969 0.473477
10278.51953 0.473636
10279.34961 0.473795
10280.17969 0.473947
10281.01953 0.474072
10281.84961 0.474197
10282.69043 0.474322
10283.51953 0.474394
10284.34961 0.474458
10285.19043 0.474521
10286.01953 0.474584
10286.86035 0.474647
10287.69043 0.47471
10288.53027 0.474773
10289.36035 0.474836
10290.20020 0.474907
10291.03027 0.475004
10291.87012 0.475101
10292.70020 0.475198
10293.54004 0.475235
10294.37012 0.475262
10295.20996 0.475289
10296.04004 0.475316
10296.87988 0.475343
10297.70996 0.47537
10298.54980 0.475397
10299.37988 0.475424
10300.21973 0.475451
10301.04980 0.475477
10301.88965 0.475504
10302.71973 0.475531
10303.55957 0.475505
10304.40039 0.475473
10305.23047 0.47544
10306.07031 0.475408
10306.90039 0.475376
10307.74023 0.475343
10308.58008 0.475311
10309.41016 0.475278
10310.25000 0.475246
10311.08008 0.475213
10311.91992 0.47518
10312.75977 0.475147
10313.58984 0.475083
10314.42969 0.475016
10315.26953 0.474949
10316.11035 0.474882
10316.94043 0.474815
10317.78027 0.474748
10318.62012 0.47468
10319.45020 0.474613
10320.29004 0.474546
10321.12988 0.474478
10321.95996 0.474411
10322.79980 0.474343
10323.63965 0.474225
10324.48047 0.474106
10325.30957 0.473987
10326.15039 0.473867
10326.99023 0.473748
10327.83008 0.473628
10328.66992 0.473509
10329.50000 0.473389
10330.33984 0.47327
10331.17969 0.47315
10332.01953 0.473029
10332.86035 0.472909
10333.69043 0.472777
10334.53027 0.472645
10335.37012 0.472513
10336.20996 0.472381
10337.04980 0.472249
10337.88965 0.472117
10338.71973 0.471985
10339.55957 0.471853
10340.40039 0.47172
10341.24023 0.471588
10342.08008 0.471455
10342.91992 0.471324
10343.75977 0.471202
10344.59961 0.471081
10345.44043 0.470959
10346.28027 0.470837
10347.11035 0.470715
10347.95020 0.470593
10348.79004 0.470472
10349.62988 0.47035
10350.46973 0.470228
10351.30957 0.470105
10352.15039 0.469983
10352.99023 0.469862
10353.83008 0.469751
10354.66992 0.469639
10355.50977 0.469527
10356.34961 0.469415
10357.19043 0.469303
10358.03027 0.469191
10358.87012 0.469079
10359.70996 0.468966
10360.54980 0.468854
10361.38965 0.468742
10362.23047 0.468629
10363.07031 0.468521
10363.91992 0.468426
10364.75977 0.46833
10365.59961 0.468234
10366.44043 0.468138
10367.28027 0.468042
10368.12012 0.467946
10368.95996 0.46785
10369.79980 0.467754
10370.63965 0.467658
10371.48047 0.467562
10372.33008 0.467465
10373.16992 0.467385
10374.00977 0.46733
10374.84961 0.467276
10375.69043 0.467221
10376.53027 0.467166
10377.37012 0.467112
10378.21973 0.467057
10379.05957 0.467002
10379.90039 0.466947
10380.74023 0.466892
10381.58008 0.466837
10382.42969 0.466782
10383.26953 0.466751
10384.11035 0.466744
10384.95020 0.466737
10385.79980 0.466729
10386.63965 0.466722
10387.48047 0.466714
10388.32031 0.466707
10389.16992 0.466699
10390.00977 0.466692
10390.84961 0.466684
10391.70020 0.466676
10392.54004 0.466668
10393.37988 0.466679
10394.21973 0.466701
10395.07031 0.466723
10395.91016 0.466745
10396.75000 0.466766
10397.59961 0.466788
10398.44043 0.46681
10399.29004 0.466832
10400.12988 0.466854
10400.96973 0.466877
10401.82031 0.4669
10402.66016 0.466922
10403.50000 0.467011
10404.34961 0.467119
10405.19043 0.467227
10406.04004 0.467335
10406.87988 0.467442
10407.71973 0.46755
10408.57031 0.467658
10409.41016 0.467766
10410.25977 0.467874
10411.09961 0.467982
10411.95020 0.468089
10412.79004 0.468197
10413.63965 0.468334
10414.48047 0.468473
10415.33008 0.468612
10416.16992 0.468751
10417.01953 0.46889
10417.86035 0.46903
10418.70996 0.469169
10419.54980 0.469308
10420.40039 0.469448
10421.24023 0.469586
10422.08984 0.469725
10422.92969 0.469868
10423.78027 0.470041
10424.62012 0.470215
10425.46973 0.470389
10426.32031 0.470563
10427.16016 0.470736
10428.00977 0.47091
10428.84961 0.471084
10429.70020 0.471258
10430.54004 0.471432
10431.38965 0.471605
10432.24023 0.471779
10433.08008 0.471961
10433.92969 0.472163
10434.78027 0.472366
10435.62012 0.472568
10436.46973 0.472771
10437.32031 0.472973
10438.16016 0.473176
10439.00977 0.473379
10439.86035 0.473582
10440.70020 0.473784
10441.54980 0.473987
10442.40039 0.47419
10443.24023 0.4744
10444.08984 0.47462
10444.94043 0.474839
10445.79004 0.475059
10446.62988 0.475278
10447.48047 0.475498
10448.33008 0.475718
10449.17969 0.475938
10450.01953 0.476156
10450.87012 0.476341
10451.71973 0.476526
10452.57031 0.476711
10453.41992 0.476905
10454.25977 0.477105
10455.11035 0.477305
10455.95996 0.477504
10456.80957 0.477703
10457.66016 0.477903
10458.50000 0.478102
10459.34961 0.478302
10460.20020 0.47851
10461.04980 0.478744
10461.90039 0.478979
10462.75000 0.479213
10463.59961 0.479447
10464.44043 0.479681
10465.29004 0.479916
10466.13965 0.48015
10466.99023 0.480384
10467.83984 0.480619
10468.69043 0.480853
10469.54004 0.481088
10470.38965 0.481322
10471.24023 0.481557
10472.08984 0.481791
10472.94043 0.482024
10473.79004 0.482239
10474.63965 0.482453
10475.49023 0.482668
10476.33008 0.482882
10477.19043 0.483097
10478.04004 0.483311
10478.87988 0.483526
10479.74023 0.483741
10480.58008 0.483955
10481.44043 0.48417
10482.29004 0.484384
10483.13965 0.484589
10483.99023 0.484773
10484.83984 0.484957
10485.69043 0.485141
10486.54004 0.485325
10487.38965 0.485509
10488.24023 0.485693
10489.08984 0.485877
10489.94043 0.486061
10490.79004 0.486245
10491.63965 0.486429
10492.49023 0.486613
10493.34961 0.486781
10494.20020 0.486936
10495.04980 0.487091
10495.90039 0.487246
10496.75000 0.487401
10497.59961 0.487556
10498.45020 0.487711
10499.30957 0.487866
10500.16016 0.488015
10501.00977 0.488136
10501.86035 0.488258
10502.70996 0.488379
10503.57031 0.488459
10504.41992 0.488528
10505.26953 0.488598
10506.12012 0.488667
10506.96973 0.488737
10507.83008 0.488806
10508.67969 0.488876
10509.53027 0.488945
10510.37988 0.489015
10511.24023 0.489084
10512.08984 0.489154
10512.94043 0.489221
10513.79004 0.489254
10514.65039 0.489288
10515.50000 0.489322
10516.34961 0.489355
10517.20996 0.489389
10518.05957 0.489422
10518.91016 0.489456
10519.76953 0.48949
10520.62012 0.489523
10521.46973 0.489557
10522.33008 0.48959
10523.17969 0.489613
10524.03027 0.489617
10524.88965 0.489621
10525.74023 0.489625
10526.59961 0.489629
10527.45020 0.489632
10528.29980 0.489636
10529.16016 0.48964
10530.00977 0.489644
10530.87012 0.489648
10531.71973 0.489651
10532.57031 0.489655
10533.42969 0.489624
10534.28027 0.489575
10535.13965 0.489525
10535.99023 0.489475
10536.84961 0.489425
10537.70020 0.489375
10538.55957 0.489325
10539.41016 0.489275
10540.26953 0.489225
10541.12012 0.489175
10541.98047 0.489125
10542.83008 0.489075
10543.69043 0.488993
10544.54004 0.488908
10545.40039 0.488824
10546.25000 0.488739
10547.11035 0.488654
10547.95996 0.48857
10548.82031 0.488486
10549.67969 0.488401
10550.53027 0.488316
10551.38965 0.488231
10552.24023 0.488147
10553.09961 0.488058
10553.95996 0.487956
10554.80957 0.487855
10555.66992 0.487754
10556.51953 0.487652
10557.37988 0.487551
10558.24023 0.487449
10559.08984 0.487348
10559.95020 0.487246
10560.80957 0.487144
10561.66016 0.487043
10562.51953 0.486941
10563.37988 0.48683
10564.23047 0.486711
10565.08984 0.486591
10565.95020 0.486472
10566.80957 0.486353
10567.66016 0.486234
10568.51953 0.486114
10569.37988 0.485995
10570.24023 0.485876
10571.08984 0.485756
10571.95020 0.485637
10572.80957 0.485517
10573.66992 0.485404
10574.51953 0.485291
10575.37988 0.485179
10576.24023 0.485066
10577.09961 0.484953
10577.95996 0.484841
10578.80957 0.484727
10579.66992 0.484615
10580.53027 0.484502
10581.38965 0.484389
10582.25000 0.484276
10583.09961 0.484162
10583.95996 0.48404
10584.82031 0.483919
10585.67969 0.483798
10586.54004 0.483676
10587.40039 0.483555
10588.25977 0.483434
10589.12012 0.483312
10589.96973 0.483191
10590.83008 0.483069
10591.69043 0.482948
10592.54980 0.482826
10593.41016 0.482731
10594.26953 0.482654
10595.12988 0.482577
10595.99023 0.482499
10596.84961 0.482422
10597.70996 0.482345
10598.57031 0.482268
10599.42969 0.48219
10600.29004 0.482112
10601.15039 0.482032
10602.00977 0.481951
10602.87012 0.481871
10603.73047 0.481801
10604.58984 0.481731
10605.45020 0.481661
10606.30957 0.481591
10607.16992 0.481522
10608.03027 0.481452
10608.88965 0.481382
10609.75000 0.481312
10610.61035 0.481243
10611.46973 0.481173
10612.33008 0.481103
10613.19043 0.481044
10614.05957 0.481005
10614.91992 0.480967
10615.78027 0.480928
10616.63965 0.48089
10617.50000 0.480851
10618.36035 0.480813
10619.21973 0.480774
10620.08008 0.480736
10620.95020 0.480697
10621.80957 0.480659
10622.66992 0.48062
10623.53027 0.480611
10624.38965 0.480612
10625.25000 0.480614
10626.12012 0.480616
10626.98047 0.480618
10627.83984 0.480619
10628.70020 0.480621
10629.57031 0.480623
10630.42969 0.480625
10631.29004 0.480627
10632.15039 0.480629
10633.00977 0.480633
10633.87988 0.480658
10634.74023 0.480683
10635.59961 0.480709
10636.46973 0.480734
10637.33008 0.480759
10638.19043 0.480784
10639.04980 0.480809
10639.91992 0.480834
10640.78027 0.480859
10641.63965 0.480884
10642.50977 0.480909
10643.37012 0.480953
10644.23047 0.481013
10645.09961 0.481072
10645.95996 0.481132
10646.82031 0.481192
10647.69043 0.481252
10648.54980 0.481312
10649.41992 0.481371
10650.28027 0.481431
10651.13965 0.481491
10652.00977 0.481551
10652.87012 0.481611
10653.74023 0.481695
10654.59961 0.481781
10655.45996 0.481868
10656.33008 0.481954
10657.19043 0.48204
10658.05957 0.482126
10658.91992 0.482213
10659.79004 0.482299
10660.65039 0.482385
10661.51953 0.482472
10662.37988 0.482558
10663.25000 0.482653
10664.11035 0.482761
10664.98047 0.48287
10665.83984 0.482978
10666.70996 0.483087
10667.57031 0.483196
10668.44043 0.483304
10669.29980 0.483413
10670.16992 0.483521
10671.03027 0.48363
10671.90039 0.483739
10672.76953 0.483847
10673.62988 0.48399
10674.50000 0.484141
10675.36035 0.484292
10676.23047 0.484442
10677.09961 0.484593
10677.95996 0.484744
10678.83008 0.484894
10679.69043 0.485045
10680.55957 0.485219
10681.42969 0.485406
10682.29004 0.485593
10683.16016 0.48578
10684.03027 0.485964
10684.88965 0.486149
10685.75977 0.486334
10686.62988 0.486519
10687.49023 0.486704
10688.36035 0.486889
10689.23047 0.487074
10690.08984 0.487256
10690.95996 0.487404
10691.83008 0.487553
10692.70020 0.487702
10693.55957 0.487849
10694.42969 0.487996
10695.29980 0.488142
10696.16992 0.488289
10697.04004 0.488435
10697.90039 0.488582
10698.76953 0.488728
10699.63965 0.488875
10700.50977 0.489021
10701.37012 0.489168
10702.24023 0.489315
10703.11035 0.489461
10703.98047 0.489606
10704.84961 0.48975
10705.71973 0.489895
10706.58008 0.49004
10707.45020 0.490185
10708.32031 0.49033
10709.19043 0.490475
10710.05957 0.49062
10710.92969 0.490765
10711.79980 0.490909
10712.66992 0.491055
10713.53027 0.491188
10714.40039 0.491317
10715.26953 0.491445
10716.13965 0.491574
10717.00977 0.491703
10717.87988 0.491831
10718.75000 0.49196
10719.62012 0.492089
10720.49023 0.492217
10721.36035 0.492346
10722.23047 0.492475
10723.09961 0.4926
10723.96973 0.492709
10724.83984 0.492817
10725.70996 0.492926
10726.58008 0.493035
10727.45020 0.493143
10728.32031 0.493252
10729.19043 0.493361
10730.05957 0.49347
10730.92969 0.493578
10731.79980 0.493687
10732.66992 0.493796
10733.54004 0.493892
10734.41016 0.493982
10735.28027 0.494072
10736.15039 0.494163
10737.03027 0.494253
10737.90039 0.494343
10738.76953 0.494433
10739.63965 0.494524
10740.50977 0.494614
10741.37988 0.494704
10742.25000 0.494795
10743.12012 0.494881
10744.00000 0.494952
10744.87012 0.495022
10745.74023 0.495093
10746.61035 0.495163
10747.48047 0.495234
10748.34961 0.495305
10749.23047 0.495375
10750.09961 0.495446
10750.96973 0.495517
10751.83984 0.495587
10752.70996 0.495658
10753.58984 0.495705
10754.45996 0.495743
10755.33008 0.495781
10756.20020 0.495819
10757.08008 0.495857
10757.95020 0.495895
10758.82031 0.495933
10759.69043 0.495971
10760.57031 0.496009
10761.44043 0.496048
10762.30957 0.496086
10763.19043 0.496117
10764.05957 0.496128
10764.92969 0.496139
10765.80957 0.496151
10766.67969 0.496162
10767.54980 0.496173
10768.42969 0.496184
10769.29980 0.496196
10770.16992 0.496207
10771.04980 0.496218
10771.91992 0.49623
10772.79004 0.496241
10773.66992 0.496227
10774.54004 0.496206
10775.41992 0.496186
10776.29004 0.496166
10777.16992 0.496146
10778.04004 0.496126
10778.91016 0.496105
10779.79004 0.496085
10780.66016 0.496065
10781.54004 0.496045
10782.41016 0.496025
10783.29004 0.495998
10784.16016 0.495958
10785.04004 0.495918
10785.91016 0.495878
10786.79004 0.495838
10787.66016 0.495798
10788.54004 0.495759
10789.41016 0.495719
10790.29004 0.495679
10791.16016 0.495639
10792.04004 0.495599
10792.91016 0.49556
10793.79004 0.495504
10794.66016 0.495447
10795.54004 0.495391
10796.41992 0.495335
10797.29004 0.495278
10798.16992 0.495222
10799.04004 0.495165
10799.91992 0.495109
10800.79004 0.495054
10801.66992 0.495
10802.54980 0.494945
10803.41992 0.494883
10804.29980 0.494814
10805.17969 0.494744
10806.04980 0.494675
10806.92969 0.494605
10807.80957 0.494536
10808.67969 0.494467
10809.55957 0.494397
10810.44043 0.494328
10811.30957 0.494259
10812.19043 0.49419
10813.07031 0.494121
10813.95020 0.49406
10814.82031 0.493999
10815.70020 0.493937
10816.58008 0.493876
10817.45996 0.493814
10818.33008 0.493752
10819.20996 0.493691
10820.08984 0.49363
10820.96973 0.493568
10821.83984 0.493507
10822.71973 0.493445
10823.59961 0.493386
10824.48047 0.493327
10825.36035 0.493268
10826.23047 0.493209
10827.11035 0.49315
10827.99023 0.493091
10828.87012 0.493032
10829.75000 0.492972
10830.62988 0.492914
10831.50000 0.492854
10832.37988 0.492796
10833.25977 0.492739
10834.13965 0.492688
10835.01953 0.492636
10835.90039 0.492585
10836.78027 0.492534
10837.66016 0.492482
10838.54004 0.492431
10839.41992 0.49238
10840.29004 0.492329
10841.16992 0.492277
10842.04980 0.492226
10842.92969 0.492175
10843.80957 0.492138
10844.69043 0.4921
10845.57031 0.492063
10846.45020 0.492026
10847.33008 0.491989
10848.20996 0.491952
10849.08984 0.491915
10849.96973 0.491878
10850.84961 0.491841
10851.73047 0.491804
10852.61035 0.491767
10853.49023 0.491744
10854.37012 0.49173
10855.25000 0.491716
10856.12988 0.491702
10857.00977 0.491688
10857.90039 0.491674
10858.78027 0.49166
10859.66016 0.491646
10860.54004 0.491655
10861.41992 0.491679
10862.29980 0.491702
10863.17969 0.491728
10864.05957 0.491763
10864.94043 0.491798
10865.83008 0.491833
10866.70996 0.491868
10867.58984 0.491903
10868.46973 0.491938
10869.34961 0.491973
10870.23047 0.491999
10871.12012 0.491997
10872.00000 0.491995
10872.87988 0.491993
10873.75977 0.492011
10874.63965 0.492031
10875.53027 0.492052
10876.41016 0.492072
10877.29004 0.492092
10878.16992 0.492113
10879.04980 0.492134
10879.94043 0.492154
10880.82031 0.492175
10881.70020 0.492195
10882.58008 0.492216
10883.46973 0.492251
10884.34961 0.492299
10885.23047 0.492346
10886.12012 0.492393
10887.00000 0.49244
10887.87988 0.492488
10888.76953 0.492535
10889.65039 0.492582
10890.53027 0.492629
10891.41992 0.492677
10892.29980 0.492725
10893.17969 0.492775
10894.07031 0.492834
10894.95020 0.492893
10895.83008 0.492952
10896.71973 0.493011
10897.59961 0.49307
10898.49023 0.493129
10899.37012 0.493188
10900.25977 0.493247
10901.13965 0.493306
10902.01953 0.493365
10902.91016 0.493425
10903.79004 0.493492
10904.67969 0.49356
10905.55957 0.493628
10906.45020 0.493696
10907.33008 0.493765
10908.21973 0.493833
10909.09961 0.493901
10909.99023 0.493969
10910.87012 0.494037
10911.75977 0.494106
10912.63965 0.494175
10913.53027 0.49425
10914.41016 0.49433
10915.29980 0.49441
10916.17969 0.49449
10917.07031 0.494571
10917.95020 0.494651
10918.83984 0.494731
10919.73047 0.494811
10920.61035 0.494891
10921.50000 0.494972
10922.37988 0.495053
10923.26953 0.495134
10924.16016 0.495218
10925.04004 0.495302
10925.92969 0.495386
10926.80957 0.49547
10927.70020 0.495554
10928.58984 0.495638
10929.46973 0.495722
10930.36035 0.495806
10931.25000 0.495891
10932.12988 0.495975
10933.01953 0.49606
10933.91016 0.496141
10934.79004 0.496222
10935.67969 0.496304
10936.57031 0.496385
10937.45996 0.496467
10938.33984 0.496548
10939.23047 0.49663
10940.12012 0.496711
10941.00977 0.496793
10941.88965 0.496875
10942.78027 0.496957
10943.66992 0.49703
10944.55957 0.4971
10945.44043 0.49717
10946.33008 0.497241
10947.21973 0.497311
10948.11035 0.497382
10949.00000 0.497452
10949.87988 0.497522
10950.76953 0.497593
10951.66016 0.497664
10952.54980 0.497734
10953.44043 0.497798
10954.33008 0.497856
10955.20996 0.497913
10956.09961 0.49797
10956.99023 0.498028
10957.87988 0.498085
10958.76953 0.498142
10959.66016 0.4982
10960.54980 0.498257
10961.44043 0.498315
10962.33008 0.498373
10963.21973 0.498425
10964.11035 0.49846
10965.00000 0.498495
10965.87988 0.49853
10966.76953 0.498565
10967.66016 0.4986
10968.54980 0.498635
10969.44043 0.498669
10970.33008 0.498719
10971.21973 0.498792
10972.11035 0.498866
10973.00000 0.498939
10973.88965 0.499
10974.78027 0.49906
10975.66992 0.499121
10976.55957 0.499181
10977.45996 0.499241
10978.34961 0.499302
10979.24023 0.499362
10980.12988 0.499417
10981.01953 0.49944
10981.91016 0.499462
10982.79980 0.499485
10983.69043 0.499505
10984.58008 0.499524
10985.46973 0.499542
10986.36035 0.499561
10987.25000 0.49958
10988.15039 0.499599
10989.04004 0.499618
10989.92969 0.499637
10990.82031 0.499648
10991.70996 0.499657
10992.59961 0.499668
10993.50000 0.49966
10994.38965 0.499637
10995.28027 0.499614
10996.16992 0.499591
10997.05957 0.499568
10997.95996 0.499545
10998.84961 0.499523
10999.74023 0.4995
11000.62988 0.499481
11001.51953 0.499463
11002.41992 0.499446
11003.30957 0.499423
11004.20020 0.499389
11005.08984 0.499355
11005.99023 0.499321
11006.87988 0.499286
11007.76953 0.499252
11008.66992 0.499218
11009.55957 0.499184
11010.45020 0.49915
11011.34961 0.499115
11012.24023 0.499081
11013.12988 0.499045
11014.03027 0.498992
11014.91992 0.49894
11015.80957 0.498887
11016.70996 0.498835
11017.59961 0.498782
11018.49023 0.49873
11019.38965 0.498677
11020.28027 0.498625
11021.16992 0.498572
11022.07031 0.49852
11022.95996 0.498467
11023.86035 0.498404
11024.75000 0.49834
11025.65039 0.498276
11026.54004 0.498212
11027.44043 0.498148
11028.33008 0.498084
11029.21973 0.49802
11030.12012 0.497956
11031.00977 0.497892
11031.91016 0.497828
11032.79980 0.497764
11033.70020 0.4977
11034.58984 0.497636
11035.49023 0.497571
11036.37988 0.497507
11037.28027 0.497443
11038.16992 0.497379
11039.07031 0.497314
11039.96973 0.49725
11040.86035 0.497186
11041.75977 0.497121
11042.65039 0.497057
11043.54980 0.496991
11044.44043 0.496922
11045.33984 0.496854
11046.24023 0.496786
11047.12988 0.496718
11048.03027 0.49665
11048.91992 0.496582
11049.82031 0.496514
11050.71973 0.496446
11051.61035 0.496377
11052.50977 0.496309
11053.41016 0.49624
11054.29980 0.496169
11055.20020 0.496098
11056.09961 0.496027
11056.99023 0.495956
11057.88965 0.495884
11058.79004 0.495813
11059.69043 0.495742
11060.58008 0.495696
11061.48047 0.495663
11062.37988 0.49563
11063.26953 0.4956
11064.16992 0.495578
11065.07031 0.495555
11065.96973 0.495533
11066.87012 0.495511
11067.75977 0.495489
11068.66016 0.495467
11069.55957 0.495445
11070.45996 0.495403
11071.34961 0.495343
11072.25000 0.495282
11073.15039 0.495224
11074.04980 0.495179
11074.95020 0.495134
11075.84961 0.495089
11076.75000 0.495044
11077.63965 0.494999
11078.54004 0.494953
11079.44043 0.494908
11080.33984 0.494863
11081.24023 0.494818
11082.13965 0.494773
11083.04004 0.494728
11083.94043 0.494696
11084.83008 0.494663
11085.73047 0.494631
11086.62988 0.494598
11087.53027 0.494566
11088.42969 0.494533
11089.33008 0.494501
11090.23047 0.494468
11091.12988 0.494436
11092.03027 0.494403
11092.92969 0.494371
11093.83008 0.494353
11094.73047 0.494338
11095.62988 0.494323
11096.53027 0.494307
11097.42969 0.494292
11098.33008 0.494276
11099.23047 0.494261
11100.12988 0.494246
11101.03027 0.49423
11101.92969 0.494215
11102.83008 0.494199
11103.73047 0.494209
11104.62988 0.494227
11105.54004 0.494245
11106.44043 0.494262
11107.33984 0.49428
11108.24023 0.494298
11109.13965 0.494315
11110.04004 0.494333
11110.94043 0.49435
11111.83984 0.494368
11112.74023 0.494385
11113.65039 0.494419
11114.54980 0.49446
11115.45020 0.4945
11116.34961 0.494541
11117.25000 0.494582
11118.15039 0.494623
11119.05957 0.494664
11119.95996 0.494705
11120.86035 0.494746
11121.75977 0.494786
11122.66992 0.494827
11123.57031 0.494873
11124.46973 0.494923
11125.37012 0.494972
11126.26953 0.495022
11127.17969 0.495071
11128.08008 0.495121
11128.98047 0.49517
11129.88965 0.49522
11130.79004 0.49527
11131.69043 0.495319
11132.58984 0.495369
11133.50000 0.495428
11134.40039 0.495497
11135.29980 0.495566
11136.20996 0.495634
11137.11035 0.495704
11138.00977 0.495772
11138.91992 0.495841
11139.82031 0.49591
11140.71973 0.49601
11141.62988 0.496117
11142.53027 0.496225
11143.44043 0.496336
11144.33984 0.496452
11145.24023 0.496568
11146.15039 0.496684
11147.04980 0.4968
11147.95996 0.496916
11148.86035 0.497033
11149.76953 0.497149
11150.66992 0.497237
11151.58008 0.497314
11152.48047 0.497392
11153.37988 0.497473
11154.29004 0.497559
11155.19043 0.497646
11156.09961 0.497732
11157.00000 0.497818
11157.91016 0.497904
11158.80957 0.497991
11159.71973 0.498077
11160.62012 0.498163
11161.53027 0.49825
11162.44043 0.498336
11163.33984 0.498425
11164.25000 0.49852
11165.15039 0.498614
11166.05957 0.498709
11166.95996 0.498803
11167.87012 0.498898
11168.78027 0.498992
11169.67969 0.499087
11170.58984 0.499181
11171.49023 0.499276
11172.40039 0.49937
11173.30957 0.499464
11174.20996 0.499553
11175.12012 0.499643
11176.03027 0.499733
11176.92969 0.499823
11177.83984 0.499913
11178.75000 0.500003
11179.65039 0.500093
11180.55957 0.500182
11181.46973 0.500272
11182.37012 0.500362
11183.28027 0.50045
11184.19043 0.500533
11185.09961 0.500615
11186.00000 0.500698
11186.91016 0.50078
11187.82031 0.500863
11188.73047 0.500946
11189.62988 0.501028
11190.54004 0.501111
11191.45020 0.501193
11192.36035 0.501276
11193.25977 0.501355
11194.16992 0.501419
11195.08008 0.501484
11195.99023 0.501548
11196.90039 0.501613
11197.80957 0.501677
11198.70996 0.501742
11199.62012 0.501807
11200.53027 0.501896
11201.44043 0.502002
11202.34961 0.502108
11203.25977 0.502211
11204.16992 0.5023
11205.07031 0.502389
11205.98047 0.502479
11206.88965 0.502568
11207.79980 0.502658
11208.70996 0.502747
11209.62012 0.502836
11210.53027 0.502903
11211.44043 0.502954
11212.34961 0.503004
11213.25977 0.503052
11214.16992 0.503089
11215.08008 0.503127
11215.99023 0.503164
11216.90039 0.503201
11217.80957 0.503239
11218.71973 0.503276
11219.62988 0.503314
11220.54004 0.503351
11221.45020 0.503389
11222.36035 0.503426
11223.26953 0.503458
11224.17969 0.503469
11225.08984 0.50348
11226.00000 0.503491
11226.91016 0.503502
11227.82031 0.503513
11228.73047 0.503524
11229.63965 0.503535
11230.54980 0.503546
11231.45996 0.503557
11232.37988 0.503568
11233.29004 0.503572
11234.20020 0.503555
11235.11035 0.503537
11236.01953 0.503519
11236.92969 0.503502
11237.83984 0.503484
11238.75977 0.503466
11239.66992 0.503449
11240.58008 0.503431
11241.49023 0.503413
11242.40039 0.503396
11243.32031 0.503372
11244.23047 0.503331
11245.13965 0.50329
11246.04980 0.503249
11246.95996 0.503208
11247.87988 0.503167
11248.79004 0.503126
11249.70020 0.503084
11250.61035 0.503043
11251.53027 0.503002
11252.44043 0.502961
11253.34961 0.502915
11254.26953 0.502856
11255.17969 0.502797
11256.08984 0.502738
11257.00000 0.502679
11257.91992 0.50262
11258.83008 0.502561
11259.74023 0.502502
11260.66016 0.502443
11261.57031 0.502384
11262.48047 0.502325
11263.40039 0.50226
11264.30957 0.502182
11265.23047 0.502106
11266.13965 0.502029
11267.04980 0.501952
11267.96973 0.501875
11268.87988 0.501798
11269.79980 0.501721
11270.70996 0.501674
11271.62012 0.501636
11272.54004 0.501599
11273.45020 0.501554
11274.37012 0.501499
11275.28027 0.501444
11276.20020 0.501389
11277.11035 0.501334
11278.03027 0.501278
11278.94043 0.501223
11279.86035 0.501168
11280.76953 0.50108
11281.69043 0.500985
11282.59961 0.500891
11283.51953 0.50079
11284.42969 0.500684
11285.34961 0.500577
11286.25977 0.50047
11287.17969 0.500363
11288.08984 0.500256
11289.00977 0.50015
11289.92969 0.500043
11290.83984 0.499936
11291.75977 0.499829
11292.66992 0.499722
11293.58984 0.499612
11294.50977 0.499499
11295.41992 0.499386
11296.33984 0.499273
11297.25000 0.499161
11298.16992 0.499047
11299.08984 0.498935
11300.00000 0.498822
11300.91992 0.498709
11301.83984 0.498596
11302.75000 0.498483
11303.66992 0.498372
11304.58984 0.498263
11305.50977 0.498153
11306.41992 0.498044
11307.33984 0.497934
11308.25977 0.497825
11309.16992 0.497715
11310.08984 0.497605
11311.00977 0.497496
11311.92969 0.497386
11312.84961 0.497276
11313.75977 0.497173
11314.67969 0.497073
11315.59961 0.496972
11316.51953 0.496872
11317.42969 0.496771
11318.34961 0.496671
11319.26953 0.49657
11320.19043 0.49647
11321.11035 0.496369
11322.03027 0.496269
11322.94043 0.496168
11323.86035 0.496069
11324.78027 0.495971
11325.70020 0.495874
11326.62012 0.495776
11327.54004 0.495678
11328.45996 0.49558
11329.37988 0.495482
11330.29004 0.495396
11331.20996 0.495337
11332.12988 0.495278
11333.04980 0.495219
11333.96973 0.495183
11334.88965 0.495149
11335.80957 0.495115
11336.73047 0.495081
11337.65039 0.495047
11338.57031 0.495013
11339.49023 0.494979
11340.41016 0.494928
11341.33008 0.494855
11342.25000 0.494782
11343.16992 0.494712
11344.08984 0.494676
11345.00977 0.49464
11345.92969 0.494604
11346.84961 0.494569
11347.76953 0.494533
11348.69043 0.494497
11349.61035 0.494462
11350.53027 0.494426
11351.45020 0.49439
11352.37012 0.494354
11353.29980 0.494323
11354.21973 0.494308
11355.13965 0.494294
11356.05957 0.494279
11356.98047 0.494264
11357.90039 0.49425
11358.82031 0.494235
11359.74023 0.49422
11360.66992 0.494206
11361.58984 0.494191
11362.50977 0.494177
11363.42969 0.494173
11364.34961 0.49419
11365.26953 0.494206
11366.20020 0.494223
11367.12012 0.49424
11368.04004 0.494256
11368.95996 0.494273
11369.88965 0.49429
11370.80957 0.494307
11371.73047 0.494324
11372.65039 0.49434
11373.58008 0.494368
11374.50000 0.494408
11375.41992 0.494448
11376.33984 0.494488
11377.26953 0.494528
11378.19043 0.494568
11379.11035 0.494607
11380.04004 0.494649
11380.95996 0.494728
11381.87988 0.494807
11382.79980 0.494886
11383.73047 0.49498
11384.65039 0.495082
11385.58008 0.495184
11386.50000 0.495286
11387.41992 0.495388
11388.34961 0.49549
11389.26953 0.495592
11390.19043 0.495686
11391.12012 0.495749
11392.04004 0.495812
11392.96973 0.495875
11393.88965 0.495958
11394.82031 0.496044
11395.74023 0.496131
11396.66016 0.496217
11397.58984 0.496304
11398.50977 0.49639
11399.44043 0.496476
11400.36035 0.496564
11401.29004 0.496654
11402.20996 0.496744
11403.13965 0.496834
11404.05957 0.496952
11404.99023 0.49707
11405.91016 0.497188
11406.83984 0.497306
11407.75977 0.497424
11408.69043 0.497541
11409.61035 0.497659
11410.54004 0.497777
11411.46973 0.497895
11412.38965 0.498013
11413.32031 0.498136
11414.24023 0.498276
11415.16992 0.498416
11416.08984 0.498557
11417.01953 0.498697
11417.95020 0.498837
11418.87012 0.498977
11419.79980 0.499118
11420.73047 0.499258
11421.65039 0.499399
11422.58008 0.499539
11423.50977 0.499682
11424.42969 0.499829
11425.36035 0.499975
11426.29004 0.500122
11427.20996 0.500269
11428.13965 0.500416
11429.07031 0.500562
11429.99023 0.500709
11430.91992 0.500856
11431.84961 0.501003
11432.78027 0.50115
11433.70020 0.5013
11434.62988 0.501453
11435.55957 0.501606
11436.49023 0.501759
11437.41016 0.501912
11438.33984 0.502066
11439.26953 0.502219
11440.20020 0.50238
11441.12988 0.502573
11442.04980 0.502766
11442.98047 0.502959
11443.91016 0.503153
11444.83984 0.503346
11445.76953 0.50354
11446.70020 0.503733
11447.62012 0.503927
11448.54980 0.50412
11449.48047 0.504314
11450.41016 0.50449
11451.33984 0.504644
11452.26953 0.504798
11453.20020 0.504951
11454.12988 0.505094
11455.05957 0.505236
11455.99023 0.505378
11456.91016 0.505521
11457.83984 0.505663
11458.76953 0.505806
11459.70020 0.505949
11460.62988 0.506091
11461.55957 0.506234
11462.49023 0.506376
11463.41992 0.50652
11464.34961 0.506664
11465.28027 0.506808
11466.20996 0.506953
11467.13965 0.507097
11468.07031 0.507241
11469.00000 0.507386
11469.92969 0.50753
11470.86035 0.507675
11471.79004 0.507819
11472.71973 0.507964
11473.66016 0.508103
11474.58984 0.508237
11475.51953 0.508372
11476.45020 0.508507
11477.37988 0.508641
11478.30957 0.508776
11479.24023 0.508911
11480.16992 0.509046
11481.09961 0.50918
11482.04004 0.509315
11482.96973 0.50945
11483.90039 0.509559
11484.83008 0.509661
11485.75977 0.509764
11486.69043 0.509867
11487.62012 0.509969
11488.55957 0.510072
11489.49023 0.510175
11490.41992 0.510296
11491.34961 0.510439
11492.29004 0.510583
11493.21973 0.510725
11494.15039 0.510847
11495.08008 0.51097
11496.00977 0.511093
11496.95020 0.511216
11497.87988 0.511339
11498.80957 0.511462
11499.75000 0.511585
11500.67969 0.511676
11501.61035 0.511756
11502.54004 0.511836
11503.48047 0.511908
11504.41016 0.511965
11505.33984 0.512023
11506.28027 0.51208
11507.20996 0.512138
11508.13965 0.512195
11509.08008 0.512252
11510.00977 0.51231
11510.95020 0.512367
11511.87988 0.512425
11512.80957 0.512483
11513.75000 0.512521
11514.67969 0.512548
11515.62012 0.512575
11516.54980 0.512601
11517.48047 0.512628
11518.41992 0.512655
11519.34961 0.512682
11520.29004 0.512709
11521.21973 0.512736
11522.16016 0.512763
11523.08984 0.51279
11524.03027 0.51279
11524.95996 0.512789
11525.90039 0.512788
11526.83008 0.512786
11527.76953 0.512785
11528.70020 0.512783
11529.63965 0.512782
11530.57031 0.512781
11531.50977 0.512779
11532.44043 0.512778
11533.37988 0.512772
11534.30957 0.512753
11535.25000 0.512735
11536.17969 0.512716
11537.12012 0.512697
11538.05957 0.512678
11538.99023 0.512659
11539.92969 0.51264
11540.86035 0.512659
11541.79980 0.512681
11542.74023 0.512703
11543.66992 0.512717
11544.61035 0.512724
11545.54980 0.512731
11546.48047 0.512738
11547.41992 0.512745
11548.36035 0.512752
11549.29004 0.512759
11550.23047 0.512756
11551.16992 0.512722
11552.09961 0.512687
11553.04004 0.512653
11553.98047 0.512602
11554.91992 0.512549
11555.84961 0.512496
11556.79004 0.512442
11557.73047 0.512389
11558.66992 0.512335
11559.59961 0.512282
11560.54004 0.512228
11561.48047 0.512175
11562.41992 0.512121
11563.34961 0.512065
11564.29004 0.511994
11565.23047 0.511923
11566.16992 0.511853
11567.11035 0.511782
11568.04980 0.511711
11568.98047 0.511641
11569.91992 0.51157
11570.86035 0.511499
11571.79980 0.511429
11572.74023 0.511358
11573.67969 0.511284
11574.62012 0.511207
11575.55957 0.51113
11576.49023 0.511053
11577.42969 0.510976
11578.37012 0.510899
11579.30957 0.510822
11580.25000 0.510745
11581.19043 0.510668
11582.12988 0.510591
11583.07031 0.510514
11584.00977 0.510431
11584.95020 0.510348
11585.88965 0.510265
11586.83008 0.510181
11587.76953 0.510098
11588.70996 0.510015
11589.65039 0.509932
11590.58984 0.509874
11591.53027 0.509831
11592.46973 0.509789
11593.41016 0.509752
11594.34961 0.50973
11595.29004 0.509708
11596.23047 0.509686
11597.16992 0.509664
11598.11035 0.509642
11599.04980 0.50962
11600.00000 0.509598
11600.94043 0.509535
11601.87988 0.509473
11602.82031 0.50941
11603.75977 0.509355
11604.70020 0.509304
11605.63965 0.509254
11606.58008 0.509203
11607.53027 0.509152
11608.46973 0.509101
11609.41016 0.509051
11610.34961 0.509
11611.29004 0.508949
11612.23047 0.508898
11613.17969 0.508847
11614.12012 0.508799
11615.05957 0.50875
11616.00000 0.508701
11616.95020 0.508653
11617.88965 0.508604
11618.83008 0.508555
11619.76953 0.508507
11620.70996 0.508458
11621.66016 0.508409
11622.59961 0.50836
11623.54004 0.508317
11624.49023 0.508282
11625.42969 0.508247
11626.37012 0.508213
11627.32031 0.508178
11628.25977 0.508143
11629.20020 0.508108
11630.15039 0.50808
11631.08984 0.508085
11632.03027 0.508092
11632.98047 0.508097
11633.91992 0.50812
11634.86035 0.508147
11635.80957 0.508174
11636.75000 0.508202
11637.70020 0.508229
11638.63965 0.508256
11639.58008 0.508284
11640.53027 0.508288
11641.46973 0.508274
11642.41992 0.508261
11643.36035 0.508251
11644.30957 0.50826
11645.25000 0.508268
11646.20020 0.508276
11647.13965 0.508285
11648.08008 0.508293
11649.03027 0.508302
11649.96973 0.50831
11650.91992 0.508318
11651.86035 0.508327
11652.80957 0.508335
11653.75000 0.508356
11654.70020 0.508385
11655.65039 0.508414
11656.58984 0.508443
11657.54004 0.508472
11658.48047 0.508502
11659.42969 0.508531
11660.37012 0.50856
11661.32031 0.508589
11662.26953 0.508618
11663.20996 0.508648
11664.16016 0.508698
11665.09961 0.508747
11666.04980 0.508797
11667.00000 0.508846
11667.94043 0.508896
11668.88965 0.508946
11669.83984 0.508996
11670.78027 0.509045
11671.73047 0.509095
11672.67969 0.509145
11673.62012 0.509201
11674.57031 0.509266
11675.51953 0.50933
11676.46973 0.509395
11677.41016 0.509459
11678.36035 0.509524
11679.30957 0.509589
11680.25000 0.509664
11681.20020 0.50977
11682.15039 0.509876
11683.09961 0.509981
11684.04980 0.510108
11684.99023 0.510238
11685.94043 0.510367
11686.88965 0.510497
11687.83984 0.510626
11688.79004 0.510756
11689.73047 0.510885
11690.67969 0.510985
11691.62988 0.511073
11692.58008 0.511162
11693.53027 0.511253
11694.48047 0.511349
11695.41992 0.511446
11696.37012 0.511542
11697.32031 0.511638
11698.26953 0.511735
11699.21973 0.511831
11700.16992 0.511927
11701.12012 0.512024
11702.07031 0.51212
11703.01953 0.512217
11703.96973 0.512317
11704.91992 0.51242
11705.87012 0.512522
11706.80957 0.512624
11707.75977 0.512726
11708.70996 0.512828
11709.66016 0.51293
11710.61035 0.513033
11711.55957 0.513135
11712.50977 0.513237
11713.45996 0.513343
11714.41016 0.513457
11715.37012 0.513571
11716.32031 0.513685
11717.26953 0.513799
11718.21973 0.513913
11719.16992 0.514027
11720.12012 0.514146
11721.07031 0.514302
11722.01953 0.514457
11722.96973 0.514613
11723.91992 0.514772
11724.87012 0.514933
11725.82031 0.515094
11726.76953 0.515254
11727.73047 0.515415
11728.67969 0.515575
11729.62988 0.515736
11730.58008 0.515872
11731.53027 0.515991
11732.48047 0.51611
11733.44043 0.516227
11734.38965 0.516335
11735.33984 0.516443
11736.29004 0.516552
11737.24023 0.51666
11738.20020 0.516768
11739.15039 0.516877
11740.09961 0.516985
11741.04980 0.517094
11742.00000 0.517202
11742.95996 0.517311
11743.91016 0.517411
11744.86035 0.517509
11745.82031 0.517607
11746.76953 0.517705
11747.71973 0.517803
11748.66992 0.517901
11749.62988 0.517999
11750.58008 0.518097
11751.53027 0.518195
11752.49023 0.518293
11753.44043 0.518389
11754.38965 0.518477
11755.34961 0.518565
11756.29980 0.518653
11757.25000 0.518741
11758.20996 0.518829
11759.16016 0.518917
11760.12012 0.519006
11761.07031 0.519094
11762.01953 0.519182
11762.98047 0.51927
11763.92969 0.519351
11764.88965 0.519428
11765.83984 0.519507
11766.79980 0.519585
11767.75000 0.519663
11768.70996 0.519741
11769.66016 0.519819
11770.61035 0.519924
11771.57031 0.520044
11772.51953 0.520165
11773.48047 0.52028
11774.42969 0.520383
11775.38965 0.520486
11776.33984 0.520589
11777.29980 0.520692
11778.25977 0.520795
11779.20996 0.520897
11780.16992 0.520993
11781.12012 0.521054
11782.08008 0.521115
11783.03027 0.521175
11783.99023 0.521215
11784.95020 0.521248
11785.90039 0.521282
11786.86035 0.521316
11787.80957 0.52135
11788.76953 0.521384
11789.73047 0.521417
11790.67969 0.521451
11791.63965 0.521485
11792.59961 0.521519
11793.54980 0.521546
11794.50977 0.521562
11795.46973 0.521577
11796.41992 0.521593
11797.37988 0.521608
11798.33984 0.521624
11799.29004 0.521639
11800.25000 0.521652
11801.20996 0.521661
11802.16992 0.52167
11803.12012 0.521678
11804.08008 0.521675
11805.04004 0.521669
11806.00000 0.521663
11806.95020 0.521658
11807.91016 0.521652
11808.87012 0.521646
11809.83008 0.52164
11810.79004 0.52167
11811.74023 0.521706
11812.70020 0.521743
11813.66016 0.521773
11814.62012 0.521794
11815.58008 0.521815
11816.54004 0.521837
11817.49023 0.521858
11818.45020 0.521879
11819.41016 0.5219
11820.37012 0.521905
11821.33008 0.521883
11822.29004 0.521862
11823.25000 0.521841
11824.20996 0.521806
11825.16992 0.521771
11826.12012 0.521737
11827.08008 0.521702
11828.04004 0.521667
11829.00000 0.521632
11829.95996 0.521598
11830.91992 0.521563
11831.87988 0.521528
11832.83984 0.521493
11833.79980 0.521454
11834.75977 0.52141
11835.71973 0.521367
11836.67969 0.521324
11837.63965 0.521281
11838.59961 0.521238
11839.55957 0.521195
11840.51953 0.521152
11841.48047 0.521109
11842.44043 0.521065
11843.41016 0.52102
11844.37012 0.520962
11845.33008 0.520903
11846.29004 0.520845
11847.25000 0.520787
11848.20996 0.520729
11849.16992 0.520671
11850.12988 0.520619
11851.08984 0.520603
11852.04980 0.520587
11853.01953 0.520571
11853.98047 0.520552
11854.94043 0.520532
11855.90039 0.520512
11856.86035 0.520492
11857.83008 0.520473
11858.79004 0.520452
11859.75000 0.520432
11860.70996 0.520381
11861.66992 0.520319
11862.63965 0.520256
11863.59961 0.520194
11864.55957 0.520133
11865.51953 0.520072
11866.49023 0.520011
11867.45020 0.51995
11868.41016 0.519889
11869.37012 0.519828
11870.33984 0.519767
11871.29980 0.519706
11872.25977 0.519645
11873.23047 0.519584
11874.19043 0.519533
11875.15039 0.519483
11876.12012 0.519432
11877.08008 0.519382
11878.04004 0.519332
11879.00977 0.519282
11879.96973 0.519231
11880.92969 0.519181
11881.90039 0.519131
11882.86035 0.51908
11883.82031 0.519035
11884.79004 0.518992
11885.75000 0.51895
11886.71973 0.518908
11887.67969 0.518866
11888.65039 0.518824
11889.61035 0.518782
11890.57031 0.518765
11891.54004 0.518765
11892.50000 0.518766
11893.46973 0.518767
11894.42969 0.51877
11895.40039 0.518774
11896.36035 0.518777
11897.33008 0.518781
11898.29004 0.518784
11899.25977 0.518788
11900.21973 0.518781
11901.19043 0.518742
11902.16016 0.518704
11903.12012 0.518665
11904.08984 0.51865
11905.04980 0.51864
11906.01953 0.518629
11906.98047 0.518619
11907.95020 0.518608
11908.91992 0.518598
11909.87988 0.518587
11910.84961 0.518577
11911.80957 0.518566
11912.78027 0.518556
11913.75000 0.518544
11914.70996 0.518532
11915.67969 0.51852
11916.65039 0.518508
11917.61035 0.518496
11918.58008 0.518484
11919.54980 0.518472
11920.50977 0.51846
11921.48047 0.518448
11922.45020 0.518436
11923.41992 0.518427
11924.37988 0.518433
11925.34961 0.518439
11926.32031 0.518444
11927.28027 0.51845
11928.25000 0.518456
11929.21973 0.518462
11930.19043 0.518468
11931.16016 0.518474
11932.12012 0.518479
11933.08984 0.518485
11934.05957 0.518515
11935.03027 0.51855
11936.00000 0.518586
11936.95996 0.518621
11937.92969 0.518656
11938.90039 0.518691
11939.87012 0.518727
11940.83984 0.518799
11941.80957 0.518876
11942.76953 0.518954
11943.74023 0.519038
11944.70996 0.519128
11945.67969 0.519218
11946.65039 0.519308
11947.62012 0.519398
11948.58984 0.519488
11949.55957 0.519578
11950.53027 0.519644
11951.50000 0.519692
11952.46973 0.519739
11953.44043 0.519788
11954.41016 0.519845
11955.37988 0.519902
11956.34961 0.519958
11957.32031 0.520015
11958.29004 0.520071
11959.25977 0.520128
11960.23047 0.520184
11961.20020 0.520241
11962.16992 0.520297
11963.13965 0.520354
11964.11035 0.52043
11965.08008 0.520509
11966.04980 0.520588
11967.01953 0.520667
11967.99023 0.520747
11968.95996 0.520826
11969.92969 0.520905
11970.90039 0.520984
11971.87012 0.521063
11972.83984 0.521142
11973.82031 0.521225
11974.79004 0.52131
11975.75977 0.521395
11976.73047 0.521479
11977.70020 0.521564
11978.66992 0.521649
11979.65039 0.521734
11980.62012 0.521846
11981.58984 0.521974
11982.55957 0.522102
11983.53027 0.522229
11984.50977 0.522352
11985.48047 0.522475
11986.45020 0.522598
11987.41992 0.522721
11988.38965 0.522844
11989.37012 0.522968
11990.33984 0.523076
11991.30957 0.523156
11992.29004 0.523237
11993.25977 0.523317
11994.23047 0.523407
11995.20020 0.523497
11996.17969 0.523587
11997.15039 0.523677
11998.12012 0.523768
11999.09961 0.523858
12000.07031 0.523949
12001.04004 0.524045
12002.01953 0.524142
12002.99023 0.524238
12003.95996 0.524329
12004.94043 0.524417
12005.91016 0.524505
12006.88965 0.524593
12007.86035 0.524682
12008.83008 0.52477
12009.80957 0.524858
12010.78027 0.524946
12011.75977 0.525034
12012.73047 0.525123
12013.70996 0.52521
12014.67969 0.525297
12015.66016 0.525384
12016.62988 0.525471
12017.59961 0.525558
12018.58008 0.525644
12019.54980 0.525731
12020.53027 0.525842
12021.50000 0.525972
12022.48047 0.526102
12023.45996 0.526231
12024.42969 0.526355
12025.41016 0.526479
12026.37988 0.526603
12027.36035 0.526726
12028.33008 0.52685
12029.30957 0.526974
12030.29004 0.527085
12031.25977 0.527166
12032.24023 0.527246
12033.20996 0.527327
12034.19043 0.527394
12035.16992 0.527459
12036.13965 0.527525
12037.12012 0.527591
12038.08984 0.527657
12039.07031 0.527722
12040.04980 0.527788
12041.01953 0.527854
12042.00000 0.52792
12042.98047 0.527985
12043.95996 0.528041
12044.92969 0.528092
12045.91016 0.528143
12046.88965 0.528195
12047.86035 0.528245
12048.83984 0.528297
12049.82031 0.528348
12050.79980 0.528399
12051.76953 0.52845
12052.75000 0.528501
12053.73047 0.528542
12054.70996 0.528571
12055.67969 0.5286
12056.66016 0.528629
12057.63965 0.528658
12058.62012 0.528687
12059.59961 0.528716
12060.58008 0.52877
12061.54980 0.528843
12062.53027 0.528915
12063.50977 0.528983
12064.49023 0.529035
12065.46973 0.529087
12066.45020 0.529139
12067.42969 0.529191
12068.40039 0.529242
12069.37988 0.529294
12070.36035 0.52933
12071.33984 0.529338
12072.32031 0.529346
12073.29980 0.529354
12074.28027 0.529346
12075.25977 0.529338
12076.24023 0.52933
12077.21973 0.529321
12078.20020 0.529313
12079.17969 0.529305
12080.16016 0.529296
12081.13965 0.529288
12082.12012 0.52928
12083.09961 0.529272
12084.08008 0.52925
12085.05957 0.529225
12086.04004 0.529201
12087.01953 0.529176
12088.00000 0.529151
12088.98047 0.529126
12089.95996 0.529101
12090.94043 0.529076
12091.91992 0.529051
12092.90039 0.529026
12093.87988 0.528993
12094.87012 0.528953
12095.84961 0.528912
12096.83008 0.528872
12097.80957 0.528832
12098.79004 0.528792
12099.76953 0.528752
12100.75000 0.528745
12101.74023 0.528749
12102.71973 0.528753
12103.70020 0.528749
12104.67969 0.528735
12105.66016 0.528721
12106.65039 0.528707
12107.62988 0.528693
12108.61035 0.528679
12109.58984 0.528665
12110.57031 0.528626
12111.55957 0.528568
12112.54004 0.52851
12113.51953 0.528451
12114.50000 0.528386
12115.49023 0.528321
12116.46973 0.528257
12117.45020 0.528192
12118.44043 0.528127
12119.41992 0.528062
12120.40039 0.527998
12121.38965 0.527933
12122.37012 0.527868
12123.34961 0.527803
12124.33984 0.527732
12125.32031 0.527661
12126.29980 0.52759
12127.29004 0.527519
12128.26953 0.527447
12129.25000 0.527376
12130.24023 0.527305
12131.21973 0.527234
12132.20996 0.527162
12133.19043 0.527091
12134.16992 0.527008
12135.16016 0.526922
12136.13965 0.526837
12137.12988 0.526752
12138.11035 0.526666
12139.09961 0.526581
12140.08008 0.526499
12141.07031 0.526458
12142.04980 0.526416
12143.04004 0.526374
12144.01953 0.526341
12145.00977 0.526311
12145.99023 0.526281
12146.98047 0.526251
12147.95996 0.526221
12148.95020 0.526191
12149.92969 0.526161
12150.91992 0.526091
12151.91016 0.526017
12152.88965 0.525943
12153.87988 0.525864
12154.86035 0.525781
12155.84961 0.525698
12156.83008 0.525615
12157.82031 0.525531
12158.80957 0.525448
12159.79004 0.525365
12160.78027 0.525282
12161.76953 0.525198
12162.75000 0.525115
12163.74023 0.52504
12164.73047 0.524975
12165.70996 0.52491
12166.70020 0.524845
12167.69043 0.52478
12168.66992 0.524715
12169.66016 0.524651
12170.65039 0.524586
12171.63965 0.524521
12172.62012 0.524456
12173.61035 0.524394
12174.59961 0.524341
12175.58984 0.524287
12176.57031 0.524234
12177.55957 0.524181
12178.54980 0.524127
12179.54004 0.524074
12180.53027 0.524043
12181.50977 0.524034
12182.50000 0.524024
12183.49023 0.524016
12184.48047 0.524021
12185.46973 0.524027
12186.45996 0.524032
12187.44043 0.524037
12188.42969 0.524042
12189.41992 0.524048
12190.41016 0.524035
12191.40039 0.523996
12192.38965 0.523958
12193.37988 0.52392
12194.37012 0.5239
12195.36035 0.523879
12196.34961 0.523859
12197.33008 0.523838
12198.32031 0.523818
12199.30957 0.523797
12200.29980 0.523775
12201.29004 0.523749
12202.28027 0.523724
12203.26953 0.523699
12204.25977 0.523689
12205.25000 0.523681
12206.24023 0.523672
12207.23047 0.523663
12208.21973 0.523655
12209.20996 0.523646
12210.20020 0.523647
12211.19043 0.523681
12212.19043 0.523716
12213.17969 0.523752
12214.16992 0.523802
12215.16016 0.523856
12216.15039 0.52391
12217.13965 0.523964
12218.12988 0.524018
12219.12012 0.524072
12220.11035 0.524121
12221.09961 0.524132
12222.09961 0.524142
12223.08984 0.524153
12224.08008 0.524178
12225.07031 0.52421
12226.05957 0.524241
12227.04980 0.524273
12228.04980 0.524304
12229.04004 0.524335
12230.03027 0.524367
12231.01953 0.524398
12232.00977 0.52443
12233.00977 0.524461
12234.00000 0.524499
12234.99023 0.524539
12235.98047 0.52458
12236.98047 0.524621
12237.96973 0.524661
12238.95996 0.524702
12239.95996 0.524743
12240.95020 0.524784
12241.94043 0.524824
12242.92969 0.524865
12243.92969 0.524919
12244.91992 0.524982
12245.91016 0.525046
12246.91016 0.525109
12247.90039 0.525173
12248.88965 0.525236
12249.88965 0.5253
12250.87988 0.525402
12251.87988 0.525509
12252.87012 0.525617
12253.86035 0.525732
12254.86035 0.525854
12255.84961 0.525976
12256.84961 0.526097
12257.83984 0.526219
12258.83008 0.526341
12259.83008 0.526463
12260.82031 0.526549
12261.82031 0.526627
12262.80957 0.526705
12263.80957 0.52679
12264.79980 0.526884
12265.79980 0.526979
12266.79004 0.527073
12267.79004 0.527168
12268.78027 0.527262
12269.78027 0.527357
12270.76953 0.527451
12271.76953 0.527546
12272.75977 0.52764
12273.75977 0.527737
12274.75977 0.527839
12275.75000 0.52794
12276.75000 0.528042
12277.74023 0.528143
12278.74023 0.528245
12279.74023 0.528346
12280.73047 0.528448
12281.73047 0.528549
12282.71973 0.528651
12283.71973 0.528756
12284.71973 0.528867
12285.70996 0.528978
12286.70996 0.529089
12287.70996 0.5292
12288.70020 0.529311
12289.70020 0.529422
12290.70020 0.529564
12291.69043 0.529719
12292.69043 0.529874
12293.69043 0.530027
12294.69043 0.530173
12295.67969 0.53032
12296.67969 0.530466
12297.67969 0.530612
12298.67969 0.530759
12299.66992 0.530905
12300.66992 0.531022
12301.66992 0.531124
12302.66992 0.531226
12303.66992 0.531329
12304.66016 0.531434
12305.66016 0.531539
12306.66016 0.531644
12307.66016 0.531748
12308.66016 0.531853
12309.66016 0.531958
12310.65039 0.532063
12311.65039 0.532168
12312.65039 0.532273
12313.65039 0.532377
12314.65039 0.532477
12315.65039 0.532576
12316.65039 0.532676
12317.65039 0.532776
12318.65039 0.532876
12319.63965 0.532976
12320.63965 0.533075
12321.63965 0.533175
12322.63965 0.533275
12323.63965 0.533374
12324.63965 0.53347
12325.63965 0.533567
12326.63965 0.533663
12327.63965 0.53376
12328.63965 0.533856
12329.63965 0.533953
12330.63965 0.534078
12331.63965 0.534219
12332.63965 0.53436
12333.63965 0.534495
12334.63965 0.534611
12335.63965 0.534727
12336.65039 0.534843
12337.65039 0.534959
12338.65039 0.535076
12339.65039 0.535192
12340.65039 0.535279
12341.65039 0.53535
12342.65039 0.535421
12343.65039 0.53549
12344.65039 0.535553
12345.66016 0.535615
12346.66016 0.535677
12347.66016 0.53574
12348.66016 0.535802
12349.66016 0.535864
12350.66016 0.535926
12351.66992 0.535989
12352.66992 0.536051
12353.66992 0.536109
12354.66992 0.536157
12355.66992 0.536205
12356.67969 0.536253
12357.67969 0.536301
12358.67969 0.536349
12359.67969 0.536397
12360.69043 0.536445
12361.69043 0.536493
12362.69043 0.536541
12363.70020 0.536581
12364.70020 0.536604
12365.70020 0.536627
12366.70020 0.536649
12367.70996 0.536672
12368.70996 0.536695
12369.70996 0.536717
12370.71973 0.536772
12371.71973 0.53684
12372.71973 0.536908
12373.73047 0.536972
12374.73047 0.537028
12375.74023 0.537083
12376.74023 0.537139
12377.74023 0.537195
12378.75000 0.53725
12379.75000 0.537306
12380.75977 0.537328
12381.75977 0.537338
12382.76953 0.537349
12383.76953 0.53735
12384.76953 0.537334
12385.78027 0.537319
12386.78027 0.537303
12387.79004 0.537288
12388.79004 0.537273
12389.79980 0.537257
12390.79980 0.537241
12391.80957 0.537226
12392.80957 0.537211
12393.82031 0.537191
12394.83008 0.537165
12395.83008 0.537139
12396.83984 0.537113
12397.83984 0.537087
12398.84961 0.537062
12399.84961 0.537036
12400.86035 0.537015
12401.87012 0.536996
12402.87012 0.536977
12403.87988 0.536948
12404.87988 0.53691
12405.88965 0.536871
12406.90039 0.536832
12407.90039 0.536794
12408.91016 0.536755
12409.91992 0.536716
12410.91992 0.536719
12411.92969 0.536726
12412.94043 0.536732
12413.94043 0.536732
12414.95020 0.536727
12415.95996 0.536721
12416.95996 0.536716
12417.96973 0.53671
12418.98047 0.536705
12419.99023 0.536699
12421.00000 0.536649
12422.00000 0.536598
12423.00977 0.536547
12424.01953 0.536494
12425.03027 0.536441
12426.03027 0.536387
12427.04004 0.536333
12428.04980 0.53628
12429.05957 0.536226
12430.07031 0.536172
12431.08008 0.536119
12432.08008 0.536065
12433.08984 0.536011
12434.09961 0.535948
12435.11035 0.53588
12436.12012 0.535812
12437.12988 0.535745
12438.13965 0.535677
12439.13965 0.535609
12440.15039 0.535541
12441.16016 0.535474
12442.16992 0.535406
12443.17969 0.535338
12444.19043 0.535275
12445.20020 0.535214
12446.20996 0.535153
12447.21973 0.535091
12448.23047 0.53503
12449.24023 0.534968
12450.25000 0.534918
12451.25977 0.534902
12452.26953 0.534886
12453.28027 0.534869
12454.29004 0.534857
12455.29980 0.534846
12456.30957 0.534835
12457.32031 0.534824
12458.33008 0.534813
12459.33984 0.534802
12460.34961 0.534775
12461.36035 0.534718
12462.37012 0.534662
12463.38965 0.534605
12464.40039 0.534551
12465.41016 0.534497
12466.41992 0.534443
12467.42969 0.53439
12468.44043 0.534336
12469.45020 0.534282
12470.45996 0.534228
12471.48047 0.534174
12472.49023 0.53412
12473.50000 0.534067
12474.50977 0.53402
12475.51953 0.533973
12476.54004 0.533926
12477.54980 0.533879
12478.55957 0.533832
12479.57031 0.533785
12480.58008 0.533738
12481.59961 0.533691
12482.61035 0.533644
12483.62012 0.5336
12484.62988 0.533563
12485.65039 0.533527
12486.66016 0.533491
12487.66992 0.533455
12488.69043 0.533418
12489.70020 0.533382
12490.70996 0.533377
12491.73047 0.533386
12492.74023 0.533395
12493.75000 0.533411
12494.76953 0.533442
12495.78027 0.533472
12496.79004 0.533503
12497.80957 0.533534
12498.82031 0.533564
12499.83008 0.533595
12500.84961 0.533578
12501.86035 0.533551
12502.87988 0.533524
12503.88965 0.533508
12504.91016 0.533503
12505.91992 0.533499
12506.94043 0.533494
12507.95020 0.53349
12508.95996 0.533485
12509.98047 0.533481
12510.99023 0.533476
12512.00977 0.533472
12513.01953 0.533467
12514.04004 0.533469
12515.04980 0.533475
12516.07031 0.533482
12517.08008 0.533488
12518.09961 0.533493
12519.12012 0.5335
12520.12988 0.533506
12521.15039 0.533512
12522.16016 0.533518
12523.17969 0.533524
12524.19043 0.533547
12525.20996 0.533575
12526.23047 0.533603
12527.24023 0.533631
12528.25977 0.533659
12529.28027 0.533687
12530.29004 0.533729
12531.30957 0.533802
12532.33008 0.533875
12533.33984 0.533949
12534.36035 0.534031
12535.37012 0.534114
12536.38965 0.534197
12537.41016 0.534281
12538.42969 0.534364
12539.44043 0.534447
12540.45996 0.53451
12541.48047 0.534548
12542.50000 0.534586
12543.50977 0.534626
12544.53027 0.534692
12545.54980 0.534759
12546.57031 0.534825
12547.58008 0.534892
12548.59961 0.534958
12549.62012 0.535025
12550.63965 0.535091
12551.66016 0.535158
12552.66992 0.535224
12553.69043 0.535294
12554.70996 0.535376
12555.73047 0.535457
12556.75000 0.535538
12557.76953 0.535619
12558.78027 0.5357
12559.79980 0.535781
12560.82031 0.535899
12561.83984 0.536026
12562.86035 0.536153
12563.87988 0.536285
12564.90039 0.536424
12565.91992 0.536562
12566.94043 0.536701
12567.95996 0.53684
12568.98047 0.536979
12570.00000 0.537118
12571.01953 0.537211
12572.04004 0.537305
12573.05957 0.537398
12574.08008 0.537496
12575.09961 0.537597
12576.12012 0.537697
12577.13965 0.537798
12578.16016 0.537898
12579.17969 0.537999
12580.20020 0.5381
12581.21973 0.538201
12582.24023 0.538301
12583.25977 0.538402
12584.28027 0.538508
12585.29980 0.538616
12586.32031 0.538724
12587.33984 0.538831
12588.36035 0.538939
12589.37988 0.539046
12590.41016 0.539154
12591.42969 0.539261
12592.45020 0.539369
12593.46973 0.539476
12594.49023 0.539577
12595.50977 0.539677
12596.54004 0.539777
12597.55957 0.539878
12598.58008 0.539978
12599.59961 0.540078
12600.62012 0.540205
12601.65039 0.540349
12602.66992 0.540493
12603.69043 0.540636
12604.70996 0.540777
12605.74023 0.540918
12606.75977 0.541058
12607.78027 0.541199
12608.79980 0.54134
12609.83008 0.541481
12610.84961 0.541583
12611.87012 0.541678
12612.90039 0.541772
12613.91992 0.541878
12614.94043 0.541996
12615.95996 0.542114
12616.99023 0.542233
12618.00977 0.542351
12619.04004 0.542469
12620.05957 0.542587
12621.08008 0.542705
12622.11035 0.542824
12623.12988 0.542942
12624.15039 0.543049
12625.17969 0.54315
12626.20020 0.543251
12627.23047 0.543353
12628.25000 0.543454
12629.28027 0.543556
12630.29980 0.543657
12631.33008 0.543758
12632.34961 0.54386
12633.37012 0.543961
12634.40039 0.544046
12635.41992 0.544129
12636.45020 0.544212
12637.46973 0.544295
12638.50000 0.544378
12639.53027 0.544461
12640.54980 0.544569
12641.58008 0.544698
12642.59961 0.544828
12643.62988 0.544955
12644.65039 0.545072
12645.67969 0.545188
12646.70020 0.545304
12647.73047 0.545421
12648.75977 0.545537
12649.78027 0.545654
12650.80957 0.545734
12651.83008 0.545804
12652.86035 0.545873
12653.88965 0.545934
12654.91016 0.545983
12655.94043 0.546031
12656.96973 0.54608
12657.99023 0.546128
12659.01953 0.546176
12660.04980 0.546225
12661.08008 0.546273
12662.09961 0.546322
12663.12988 0.54637
12664.16016 0.546412
12665.17969 0.54645
12666.20996 0.546489
12667.24023 0.546527
12668.26953 0.546566
12669.29004 0.546604
12670.32031 0.546642
12671.34961 0.546681
12672.37988 0.546719
12673.41016 0.546758
12674.42969 0.546775
12675.45996 0.546791
12676.49023 0.546807
12677.51953 0.546823
12678.54980 0.546839
12679.58008 0.546855
12680.59961 0.546899
12681.62988 0.546962
12682.66016 0.547025
12683.69043 0.547082
12684.71973 0.54712
12685.75000 0.547157
12686.78027 0.547195
12687.80957 0.547233
12688.83984 0.54727
12689.87012 0.547308
12690.88965 0.547305
12691.91992 0.547296
12692.95020 0.547287
12693.98047 0.547275
12695.00977 0.54726
12696.04004 0.547246
12697.07031 0.547231
12698.09961 0.547216
12699.12988 0.547202
12700.16016 0.547187
12701.19043 0.547172
12702.21973 0.547158
12703.25000 0.547143
12704.29004 0.547114
12705.32031 0.547082
12706.34961 0.547049
12707.37988 0.547017
12708.41016 0.546984
12709.44043 0.546952
12710.46973 0.546919
12711.50000 0.546887
12712.53027 0.546854
12713.55957 0.546821
12714.58984 0.546776
12715.62988 0.546731
12716.66016 0.546686
12717.69043 0.54664
12718.71973 0.546595
12719.75000 0.54655
12720.78027 0.546541
12721.82031 0.546543
12722.84961 0.546544
12723.87988 0.546538
12724.91016 0.546517
12725.95020 0.546497
12726.98047 0.546477
12728.00977 0.546456
12729.04004 0.546436
12730.08008 0.546412
12731.11035 0.546345
12732.13965 0.546277
12733.16992 0.54621
12734.20996 0.546142
12735.24023 0.546075
12736.26953 0.546007
12737.30957 0.54594
12738.33984 0.545872
12739.37012 0.545804
12740.41016 0.545737
12741.44043 0.545669
12742.46973 0.545602
12743.50977 0.545534
12744.54004 0.545457
12745.57031 0.545379
12746.61035 0.545302
12747.63965 0.545225
12748.67969 0.545147
12749.70996 0.54507
12750.75000 0.544992
12751.78027 0.544915
12752.80957 0.544838
12753.84961 0.544761
12754.87988 0.544685
12755.91992 0.54461
12756.95020 0.544534
12757.99023 0.544458
12759.01953 0.544383
12760.05957 0.544307
12761.08984 0.544231
12762.12988 0.544156
12763.16016 0.54408
12764.20020 0.544005
12765.23047 0.543931
12766.26953 0.543857
12767.29980 0.543783
12768.33984 0.543709
12769.37988 0.543635
12770.41016 0.543579
12771.45020 0.543552
12772.48047 0.543524
12773.51953 0.543497
12774.55957 0.54347
12775.58984 0.543443
12776.62988 0.543417
12777.66992 0.54339
12778.70020 0.543363
12779.74023 0.543336
12780.78027 0.543274
12781.80957 0.543201
12782.84961 0.543127
12783.88965 0.543057
12784.91992 0.542993
12785.95996 0.542928
12787.00000 0.542864
12788.04004 0.5428
12789.07031 0.542735
12790.11035 0.542671
12791.15039 0.542606
12792.19043 0.542542
12793.21973 0.542478
12794.25977 0.542421
12795.29980 0.542366
12796.33984 0.542312
12797.37012 0.542258
12798.41016 0.542203
12799.45020 0.542149
12800.49023 0.542091
12801.53027 0.542027
12802.57031 0.541963
12803.59961 0.541901
12804.63965 0.541851
12805.67969 0.5418
12806.71973 0.54175
12807.75977 0.5417
12808.79980 0.54165
12809.83984 0.541599
12810.87988 0.541588
12811.91992 0.541585
12812.95996 0.541581
12814.00000 0.541585
12815.04004 0.541596
12816.07031 0.541607
12817.11035 0.541618
12818.15039 0.541629
12819.19043 0.54164
12820.23047 0.541641
12821.26953 0.541606
12822.30957 0.54157
12823.34961 0.541534
12824.38965 0.541514
12825.42969 0.541496
12826.46973 0.541478
12827.51953 0.54146
12828.55957 0.541443
12829.59961 0.541425
12830.63965 0.541407
12831.67969 0.541389
12832.71973 0.541371
12833.75977 0.541357
12834.79980 0.541355
12835.83984 0.541352
12836.87988 0.54135
12837.91992 0.541348
12838.96973 0.541345
12840.00977 0.541343
12841.04980 0.541341
12842.08984 0.541338
12843.12988 0.541336
12844.16992 0.541339
12845.21973 0.541346
12846.25977 0.541353
12847.29980 0.541361
12848.33984 0.541368
12849.38965 0.541374
12850.42969 0.541401
12851.46973 0.541455
12852.50977 0.541508
12853.55957 0.541563
12854.59961 0.541642
12855.63965 0.54172
12856.67969 0.541799
12857.73047 0.541878
12858.76953 0.541956
12859.80957 0.542035
12860.86035 0.542075
12861.90039 0.542107
12862.94043 0.542139
12863.99023 0.542172
12865.03027 0.542208
12866.07031 0.542243
12867.12012 0.542279
12868.16016 0.542315
12869.20996 0.54235
12870.25000 0.542386
12871.29004 0.542422
12872.33984 0.542458
12873.37988 0.542493
12874.42969 0.54254
12875.46973 0.542589
12876.50977 0.542638
12877.55957 0.542686
12878.59961 0.542735
12879.65039 0.542784
12880.69043 0.542833
12881.74023 0.542882
12882.78027 0.54293
12883.83008 0.542983
12884.87012 0.543043
12885.91992 0.543103
12886.95996 0.543164
12888.00977 0.543224
12889.05957 0.543285
12890.09961 0.54335
12891.15039 0.543457
12892.19043 0.543565
12893.24023 0.543672
12894.28027 0.54379
12895.33008 0.543911
12896.37988 0.544032
12897.41992 0.544153
12898.46973 0.544273
12899.51953 0.544395
12900.55957 0.54449
12901.61035 0.544564
12902.65039 0.544638
12903.70020 0.544711
12904.75000 0.544781
12905.79004 0.54485
12906.83984 0.54492
12907.88965 0.544989
12908.94043 0.545058
12909.98047 0.545127
12911.03027 0.545197
12912.08008 0.545266
12913.12988 0.545336
12914.16992 0.545406
12915.21973 0.545478
12916.26953 0.545549
12917.32031 0.545621
12918.36035 0.545692
12919.41016 0.545764
12920.45996 0.545835
12921.50977 0.545907
12922.55957 0.545979
12923.59961 0.546049
12924.65039 0.546114
12925.70020 0.546178
12926.75000 0.546242
12927.79980 0.546307
12928.84961 0.546371
12929.90039 0.546436
12930.95020 0.546543
12931.99023 0.546655
12933.04004 0.546767
12934.08984 0.54687
12935.13965 0.546965
12936.19043 0.54706
12937.24023 0.547155
12938.29004 0.54725
12939.33984 0.547346
12940.38965 0.547423
12941.44043 0.547471
12942.49023 0.547518
12943.54004 0.547566
12944.58984 0.547609
12945.63965 0.547651
12946.69043 0.547693
12947.74023 0.547736
12948.79004 0.547778
12949.83984 0.547821
12950.88965 0.547863
12951.94043 0.547905
12952.99023 0.547948
12954.04004 0.547987
12955.08984 0.548024
12956.13965 0.54806
12957.20020 0.548096
12958.25000 0.548133
12959.29980 0.548169
12960.34961 0.548205
12961.40039 0.548242
12962.45020 0.548278
12963.50000 0.548314
12964.55957 0.548328
12965.61035 0.54834
12966.66016 0.548353
12967.70996 0.548365
12968.75977 0.548378
12969.80957 0.54839
12970.87012 0.548403
12971.91992 0.548415
12972.96973 0.548428
12974.01953 0.548426
12975.08008 0.548406
12976.12988 0.548386
12977.17969 0.548366
12978.23047 0.548346
12979.29004 0.548326
12980.33984 0.548322
12981.38965 0.54835
12982.45020 0.548377
12983.50000 0.548405
12984.54980 0.548422
12985.61035 0.548438
12986.66016 0.548454
12987.70996 0.54847
12988.76953 0.548486
12989.82031 0.548502
12990.87012 0.548479
12991.92969 0.548447
12992.98047 0.548415
12994.04004 0.548376
12995.08984 0.548329
12996.13965 0.548281
12997.20020 0.548233
12998.25000 0.548185
12999.30957 0.548138
13000.36035 0.548097
13001.41992 0.548069
13002.46973 0.548041
13003.53027 0.548013
13004.58008 0.54796
13005.63965 0.547906
13006.69043 0.547853
13007.75000 0.547799
13008.79980 0.547746
13009.86035 0.547692
13010.91016 0.547639
13011.96973 0.547585
13013.01953 0.547532
13014.08008 0.547466
13015.12988 0.547387
13016.19043 0.547308
13017.25000 0.54723
13018.29980 0.547151
13019.36035 0.547072
13020.41016 0.547012
13021.46973 0.546982
13022.53027 0.546951
13023.58008 0.546919
13024.63965 0.546874
13025.70020 0.546828
13026.75000 0.546783
13027.80957 0.546737
13028.87012 0.546692
13029.91992 0.546646
13030.98047 0.546557
13032.04004 0.546463
13033.08984 0.54637
13034.15039 0.546268
13035.20996 0.546159
13036.26953 0.54605
13037.32031 0.545942
13038.37988 0.545833
13039.44043 0.545724
13040.50000 0.545615
13041.55957 0.545506
13042.61035 0.545397
13043.66992 0.545287
13044.73047 0.545165
13045.79004 0.545044
13046.84961 0.544922
13047.90039 0.544801
13048.95996 0.544679
13050.01953 0.544558
13051.08008 0.544436
13052.13965 0.544314
13053.20020 0.544193
13054.25977 0.544063
13055.32031 0.54393
13056.37988 0.543797
13057.42969 0.543664
13058.49023 0.543531
13059.54980 0.543397
13060.61035 0.543264
13061.66992 0.543131
13062.73047 0.542998
13063.79004 0.542862
13064.84961 0.542716
13065.91016 0.54257
13066.96973 0.542424
13068.03027 0.542278
13069.08984 0.542132
13070.15039 0.541993
13071.20996 0.541894
13072.26953 0.541796
13073.33008 0.541697
13074.38965 0.541598
13075.45020 0.541499
13076.50977 0.5414
13077.57031 0.541301
13078.62988 0.541201
13079.70020 0.541102
13080.75977 0.540969
13081.82031 0.540822
13082.87988 0.540675
13083.94043 0.540529
13085.00000 0.540383
13086.05957 0.540238
13087.12012 0.540092
13088.19043 0.539947
13089.25000 0.539802
13090.30957 0.539656
13091.37012 0.539511
13092.42969 0.539365
13093.50000 0.539219
13094.55957 0.539085
13095.62012 0.538952
13096.67969 0.538819
13097.75000 0.538686
13098.80957 0.538553
13099.87012 0.53842
13100.92969 0.538287
13102.00000 0.538154
13103.05957 0.53802
13104.12012 0.53789
13105.19043 0.537762
13106.25000 0.537635
13107.30957 0.537506
13108.37988 0.537379
13109.44043 0.537251
13110.50000 0.537123
13111.57031 0.536995
13112.62988 0.536867
13113.69043 0.536741
13114.75977 0.536635
13115.82031 0.536528
13116.87988 0.536422
13117.95020 0.536316
13119.00977 0.536209
13120.08008 0.536106
13121.13965 0.536047
13122.20996 0.535987
13123.26953 0.535928
13124.33008 0.535894
13125.40039 0.53587
13126.45996 0.535847
13127.53027 0.535823
13128.58984 0.535799
13129.66016 0.535776
13130.71973 0.53572
13131.79004 0.535649
13132.84961 0.535579
13133.91992 0.53551
13134.99023 0.535445
13136.04980 0.535381
13137.12012 0.535316
13138.17969 0.535251
13139.25000 0.535186
13140.30957 0.535122
13141.37988 0.535057
13142.45020 0.534992
13143.50977 0.534927
13144.58008 0.534886
13145.63965 0.534846
13146.70996 0.534807
13147.78027 0.534767
13148.83984 0.534727
13149.91016 0.534688
13150.98047 0.534648
13152.04004 0.534608
13153.11035 0.534569
13154.17969 0.534542
13155.25000 0.534526
13156.30957 0.534511
13157.37988 0.534495
13158.45020 0.534479
13159.50977 0.534463
13160.58008 0.534473
13161.65039 0.534505
13162.71973 0.534536
13163.79004 0.534573
13164.84961 0.534636
13165.91992 0.534698
13166.99023 0.53476
13168.05957 0.534823
13169.12988 0.534886
13170.19043 0.53494
13171.25977 0.534955
13172.33008 0.53497
13173.40039 0.534986
13174.46973 0.535027
13175.54004 0.535074
13176.61035 0.535121
13177.66992 0.535168
13178.74023 0.535215
13179.80957 0.535262
13180.87988 0.535309
13181.95020 0.535356
13183.01953 0.535404
13184.08984 0.535461
13185.16016 0.535532
13186.23047 0.535604
13187.29980 0.535675
13188.37012 0.535746
13189.44043 0.535817
13190.50977 0.535888
13191.58008 0.53596
13192.65039 0.536031
13193.71973 0.536105
13194.79004 0.536206
13195.86035 0.536308
13196.92969 0.536409
13198.00000 0.53651
13199.07031 0.536612
13200.13965 0.536711
13201.20996 0.536801
13202.28027 0.53689
13203.34961 0.53698
13204.42969 0.537103
13205.50000 0.537238
13206.57031 0.537373
13207.63965 0.537507
13208.70996 0.537642
13209.78027 0.537776
13210.84961 0.537949
13211.92969 0.538131
13213.00000 0.538313
13214.07031 0.538498
13215.13965 0.538687
13216.20996 0.538877
13217.29004 0.539066
13218.36035 0.539255
13219.42969 0.539445
13220.50000 0.539612
13221.58008 0.539753
13222.65039 0.539895
13223.71973 0.540039
13224.79004 0.540206
13225.87012 0.540373
13226.94043 0.54054
13228.00977 0.540707
13229.08008 0.540875
13230.16016 0.541042
13231.23047 0.541209
13232.29980 0.541376
13233.37988 0.541543
13234.45020 0.541722
13235.53027 0.541906
13236.59961 0.542088
13237.66992 0.542271
13238.75000 0.542454
13239.82031 0.542637
13240.88965 0.54282
13241.96973 0.543004
13243.04004 0.543187
13244.12012 0.543375
13245.19043 0.543569
13246.26953 0.543764
13247.33984 0.543958
13248.41992 0.544153
13249.49023 0.544347
13250.57031 0.544542
13251.63965 0.544737
13252.70996 0.544931
13253.79004 0.545127
13254.87012 0.545328
13255.94043 0.54553
13257.01953 0.545732
13258.08984 0.545933
13259.16992 0.546135
13260.24023 0.546336
13261.32031 0.546538
13262.38965 0.54674
13263.46973 0.546941
13264.54980 0.547156
13265.62012 0.547372
13266.70020 0.547589
13267.76953 0.547805
13268.84961 0.548022
13269.92969 0.548238
13271.00000 0.5485
13272.08008 0.548766
13273.16016 0.549031
13274.23047 0.549284
13275.30957 0.549528
13276.38965 0.549772
13277.45996 0.550016
13278.54004 0.55026
13279.62012 0.550504
13280.70020 0.550716
13281.76953 0.550912
13282.84961 0.551107
13283.92969 0.551301
13285.00977 0.55149
13286.08008 0.551679
13287.16016 0.551868
13288.24023 0.552057
13289.32031 0.552247
13290.40039 0.552436
13291.46973 0.552625
13292.54980 0.552814
13293.62988 0.553004
13294.70996 0.553172
13295.79004 0.553342
13296.87012 0.553511
13297.94043 0.553679
13299.01953 0.553848
13300.09961 0.554018
13301.17969 0.554187
13302.25977 0.554356
13303.33984 0.554524
13304.41992 0.554673
13305.50000 0.554813
13306.58008 0.554953
13307.66016 0.555094
13308.74023 0.555234
13309.82031 0.555374
13310.88965 0.555515
13311.96973 0.555655
13313.04980 0.555795
13314.12988 0.555921
13315.20996 0.556029
13316.29004 0.556138
13317.37012 0.556246
13318.45996 0.556355
13319.54004 0.556463
13320.62012 0.5566
13321.70020 0.556758
13322.78027 0.556916
13323.86035 0.557068
13324.94043 0.557194
13326.01953 0.557321
13327.09961 0.557448
13328.17969 0.557575
13329.25977 0.557702
13330.33984 0.557813
13331.42969 0.55789
13332.50977 0.557967
13333.58984 0.558045
13334.66992 0.558079
13335.75000 0.558111
13336.83008 0.558144
13337.91992 0.558176
13339.00000 0.558208
13340.08008 0.558241
13341.16016 0.558273
13342.25000 0.558305
13343.33008 0.558337
13344.41016 0.558335
13345.49023 0.558317
13346.58008 0.5583
13347.66016 0.558283
13348.74023 0.558265
13349.82031 0.558248
13350.91016 0.55823
13351.99023 0.558213
13353.07031 0.558196
13354.16016 0.558159
13355.24023 0.558101
13356.32031 0.558042
13357.41016 0.557983
13358.49023 0.557925
13359.57031 0.557866
13360.66016 0.557808
13361.74023 0.557749
13362.83008 0.55769
13363.91016 0.557622
13364.99023 0.557521
13366.08008 0.55742
13367.16016 0.557319
13368.25000 0.557218
13369.33008 0.557117
13370.41992 0.557015
13371.50000 0.556914
13372.58008 0.556813
13373.66992 0.556712
13374.75000 0.556567
13375.83984 0.556424
13376.91992 0.55628
13378.00977 0.556136
13379.08984 0.555991
13380.17969 0.555856
13381.26953 0.555761
13382.34961 0.555667
13383.44043 0.555572
13384.51953 0.555444
13385.61035 0.555307
13386.69043 0.555171
13387.78027 0.555034
13388.87012 0.554897
13389.95020 0.55476
13391.04004 0.554576
13392.12012 0.55439
13393.20996 0.554203
13394.29980 0.553998
13395.37988 0.553778
13396.46973 0.553559
13397.55957 0.55334
13398.63965 0.553121
13399.73047 0.552902
13400.82031 0.552658
13401.91016 0.552406
13402.99023 0.552154
13404.08008 0.551893
13405.16992 0.551616
13406.25000 0.551338
13407.33984 0.551061
13408.42969 0.550784
13409.51953 0.550507
13410.61035 0.55023
13411.69043 0.549952
13412.78027 0.549675
13413.87012 0.549395
13414.95996 0.549101
13416.04980 0.548808
13417.12988 0.548514
13418.21973 0.54822
13419.30957 0.547927
13420.40039 0.547633
13421.49023 0.547339
13422.58008 0.547046
13423.66992 0.546752
13424.75000 0.546445
13425.83984 0.546138
13426.92969 0.545831
13428.01953 0.545524
13429.11035 0.545217
13430.20020 0.54491
13431.29004 0.544603
13432.37988 0.544296
13433.46973 0.543988
13434.55957 0.543673
13435.65039 0.543356
13436.74023 0.54304
13437.83008 0.542723
13438.91992 0.542405
13440.00977 0.542089
13441.09961 0.541821
13442.19043 0.541552
13443.28027 0.541284
13444.37012 0.541021
13445.45996 0.540761
13446.54980 0.540502
13447.63965 0.540242
13448.73047 0.539982
13449.83008 0.539722
13450.91992 0.539421
13452.00977 0.539114
13453.09961 0.538805
13454.19043 0.538503
13455.28027 0.538207
13456.37012 0.537912
13457.45996 0.537616
13458.55957 0.53732
13459.65039 0.537025
13460.74023 0.536729
13461.83008 0.536434
13462.91992 0.536138
13464.01953 0.535846
13465.11035 0.535563
13466.20020 0.535279
13467.29004 0.534995
13468.38965 0.534712
13469.48047 0.534428
13470.57031 0.534145
13471.66016 0.533861
13472.75977 0.533578
13473.84961 0.533297
13474.94043 0.533035
13476.04004 0.532772
13477.12988 0.532509
13478.21973 0.532246
13479.32031 0.531984
13480.41016 0.531721
13481.50000 0.531458
13482.59961 0.531195
13483.69043 0.530933
13484.78027 0.530707
13485.87988 0.530482
13486.96973 0.530257
13488.07031 0.530031
13489.16016 0.529806
13490.25000 0.529581
13491.34961 0.529356
13492.44043 0.52913
13493.54004 0.528905
13494.62988 0.528718
13495.73047 0.528537
13496.82031 0.528357
13497.91992 0.528176
13499.00977 0.527996
13500.11035 0.527819
13501.20020 0.527678
13502.29980 0.527537
13503.38965 0.527396
13504.49023 0.527281
13505.58008 0.527176
13506.67969 0.527071
13507.78027 0.526965
13508.87012 0.52686
13509.96973 0.526755
13511.05957 0.526603
13512.16016 0.526451
13513.25000 0.526298
13514.34961 0.526169
13515.45020 0.526055
13516.54004 0.525941
13517.63965 0.525828
13518.74023 0.525714
13519.83008 0.525601
13520.92969 0.525487
13522.03027 0.525374
13523.12012 0.52526
13524.21973 0.525164
13525.32031 0.525087
13526.41992 0.525011
13527.50977 0.524934
13528.61035 0.524857
13529.70996 0.524781
13530.79980 0.524704
13531.90039 0.524627
13533.00000 0.52455
13534.09961 0.524487
13535.20020 0.524446
13536.29004 0.524405
13537.38965 0.524364
13538.49023 0.524323
13539.58984 0.524282
13540.69043 0.524241
13541.79004 0.524201
13542.87988 0.52416
13543.98047 0.524132
13545.08008 0.524144
13546.17969 0.524156
13547.28027 0.524168
13548.37988 0.524179
13549.48047 0.524191
13550.58008 0.524203
13551.67969 0.524215
13552.78027 0.524226
13553.87012 0.52424
13554.96973 0.524267
13556.07031 0.524293
13557.16992 0.524319
13558.26953 0.524345
13559.37012 0.524371
13560.46973 0.524398
13561.57031 0.524424
13562.66992 0.52445
13563.76953 0.524477
13564.87012 0.524515
13565.96973 0.524552
13567.08008 0.524589
13568.17969 0.524626
13569.28027 0.524664
13570.37988 0.524718
13571.48047 0.524802
13572.58008 0.524887
13573.67969 0.524972
13574.78027 0.525076
13575.87988 0.525181
13576.98047 0.525286
13578.08008 0.525392
13579.19043 0.525497
13580.29004 0.52559
13581.38965 0.525647
13582.49023 0.525705
13583.58984 0.525763
13584.70020 0.525824
13585.79980 0.525886
13586.90039 0.525948
13588.00000 0.52601
13589.09961 0.526072
13590.20996 0.526134
13591.30957 0.526196
13592.41016 0.526258
13593.50977 0.526319
13594.62012 0.526377
13595.71973 0.526434
13596.82031 0.526491
13597.91992 0.526548
13599.03027 0.526605
13600.12988 0.526648
13601.23047 0.526596
13602.33984 0.526543
13603.44043 0.52649
13604.54004 0.526425
13605.65039 0.526355
13606.75000 0.526286
13607.86035 0.526216
13608.95996 0.526146
13610.05957 0.526077
13611.16992 0.526007
13612.26953 0.525937
13613.37988 0.525867
13614.48047 0.525783
13615.58984 0.525692
13616.69043 0.525601
13617.79004 0.52551
13618.90039 0.525419
13620.00000 0.525328
13621.11035 0.525237
13622.20996 0.525146
13623.32031 0.525055
13624.41992 0.524949
13625.53027 0.524834
13626.62988 0.524719
13627.74023 0.524604
13628.84961 0.524488
13629.95020 0.524373
13631.05957 0.524258
13632.16016 0.524143
13633.26953 0.524027
13634.37988 0.523886
13635.48047 0.523726
13636.58984 0.523567
13637.69043 0.523407
13638.79980 0.523247
13639.91016 0.523087
13641.00977 0.522927
13642.12012 0.522768
13643.23047 0.522608
13644.33008 0.522424
13645.44043 0.522219
13646.54980 0.522014
13647.65039 0.521809
13648.75977 0.521605
13649.87012 0.5214
13650.96973 0.521237
13652.08008 0.52108
13653.19043 0.520923
13654.29980 0.52075
13655.41016 0.520564
13656.50977 0.520377
13657.62012 0.520191
13658.73047 0.520004
13659.83984 0.519818
13660.94043 0.519591
13662.04980 0.519358
13663.16016 0.519124
13664.26953 0.518868
13665.37988 0.518589
13666.49023 0.51831
13667.59961 0.518031
13668.70020 0.517752
13669.80957 0.517473
13670.91992 0.517194
13672.03027 0.516915
13673.13965 0.516637
13674.25000 0.516335
13675.36035 0.516006
13676.46973 0.515677
13677.58008 0.515348
13678.69043 0.51502
13679.79980 0.514691
13680.91016 0.514362
13682.01953 0.514034
13683.12988 0.513706
13684.24023 0.51337
13685.34961 0.513025
13686.45996 0.51268
13687.57031 0.512335
13688.67969 0.51199
13689.79004 0.511646
13690.90039 0.511301
13692.00977 0.510957
13693.12012 0.510613
13694.23047 0.510267
13695.33984 0.50992
13696.45020 0.509572
13697.55957 0.509225
13698.66992 0.508878
13699.79004 0.508532
13700.90039 0.508185
13702.00977 0.507838
13703.12012 0.507492
13704.23047 0.507145
13705.33984 0.506799
13706.45996 0.506453
13707.57031 0.506106
13708.67969 0.50576
13709.79004 0.505414
13710.90039 0.505068
13712.01953 0.504723
13713.12988 0.504377
13714.24023 0.504051
13715.34961 0.50375
13716.46973 0.503449
13717.58008 0.503148
13718.69043 0.502848
13719.79980 0.502547
13720.91992 0.502246
13722.03027 0.501946
13723.13965 0.501645
13724.25977 0.501369
13725.37012 0.501122
13726.48047 0.500875
13727.59961 0.500628
13728.70996 0.500381
13729.82031 0.500134
13730.94043 0.499887
13732.04980 0.49964
13733.16992 0.499393
13734.28027 0.49916
13735.38965 0.498943
13736.50977 0.498725
13737.62012 0.498507
13738.74023 0.49829
13739.84961 0.498073
13740.96973 0.497895
13742.08008 0.497723
13743.20020 0.497551
13744.30957 0.497397
13745.42969 0.49726
13746.54004 0.497123
13747.66016 0.496987
13748.76953 0.49685
13749.88965 0.496713
13751.00000 0.496536
13752.12012 0.496354
13753.23047 0.496172
13754.34961 0.496031
13755.45996 0.495925
13756.58008 0.49582
13757.70020 0.495715
13758.80957 0.495609
13759.92969 0.495504
13761.04004 0.495399
13762.16016 0.495294
13763.28027 0.495188
13764.38965 0.495127
13765.50977 0.495098
13766.62988 0.49507
13767.74023 0.495042
13768.86035 0.495014
13769.98047 0.494985
13771.08984 0.494957
13772.20996 0.494928
13773.33008 0.4949
13774.45020 0.49491
13775.55957 0.494944
13776.67969 0.494979
13777.79980 0.495013
13778.91992 0.495047
13780.03027 0.495081
13781.15039 0.495115
13782.26953 0.495149
13783.38965 0.495183
13784.50977 0.495244
13785.62012 0.495317
13786.74023 0.495391
13787.86035 0.495464
13788.98047 0.495538
13790.09961 0.495611
13791.21973 0.495685
13792.33984 0.495758
13793.45996 0.495831
13794.57031 0.495936
13795.69043 0.496054
13796.80957 0.496171
13797.92969 0.496288
13799.04980 0.496406
13800.16992 0.496528
13801.29004 0.496677
13802.41016 0.496826
13803.53027 0.496975
13804.65039 0.497118
13805.76953 0.497259
13806.88965 0.497401
13808.00977 0.497542
13809.12988 0.497683
13810.25000 0.497824
13811.37012 0.497965
13812.49023 0.498106
13813.61035 0.498246
13814.73047 0.498346
13815.84961 0.498439
13816.96973 0.498532
13818.08984 0.498624
13819.20996 0.498716
13820.33008 0.498809
13821.45996 0.498901
13822.58008 0.498993
13823.70020 0.499085
13824.82031 0.499109
13825.94043 0.499128
13827.05957 0.499147
13828.17969 0.499165
13829.30957 0.499184
13830.42969 0.499288
13831.54980 0.499529
13832.66992 0.49977
13833.79004 0.50001
13834.91992 0.500154
13836.04004 0.500299
13837.16016 0.500444
13838.28027 0.500589
13839.41016 0.500733
13840.53027 0.500878
13841.65039 0.501023
13842.78027 0.501168
13843.90039 0.5013
13845.01953 0.501315
13846.13965 0.501331
13847.26953 0.501346
13848.38965 0.501362
13849.50977 0.501377
13850.63965 0.501418
13851.75977 0.50148
13852.87988 0.501541
13854.00977 0.501574
13855.12988 0.50149
13856.25977 0.501406
13857.37988 0.501321
13858.50000 0.501237
13859.62988 0.501152
13860.75000 0.501036
13861.87988 0.500906
13863.00000 0.500774
13864.12988 0.500603
13865.25000 0.500337
13866.37988 0.50007
13867.50000 0.499804
13868.62988 0.499537
13869.75000 0.49927
13870.87988 0.499003
13872.00000 0.498736
13873.12988 0.498468
13874.25000 0.498161
13875.37988 0.497795
13876.50000 0.497428
13877.62988 0.497062
13878.75000 0.496695
13879.87988 0.496328
13881.00977 0.495961
13882.12988 0.495594
13883.25977 0.495226
13884.38965 0.49483
13885.50977 0.494409
13886.63965 0.493987
13887.75977 0.493565
13888.88965 0.493142
13890.01953 0.49272
13891.13965 0.492297
13892.26953 0.491874
13893.40039 0.491451
13894.53027 0.491036
13895.65039 0.490624
13896.78027 0.490213
13897.91016 0.489802
13899.04004 0.489389
13900.16016 0.488978
13901.29004 0.488565
13902.41992 0.488152
13903.54980 0.487739
13904.66992 0.487349
13905.79980 0.486964
13906.92969 0.48658
13908.05957 0.486195
13909.19043 0.48581
13910.30957 0.485424
13911.44043 0.485038
13912.57031 0.484652
13913.70020 0.484266
13914.83008 0.483981
13915.95996 0.483706
13917.08984 0.483431
13918.21973 0.483156
13919.33984 0.48288
13920.46973 0.482605
13921.59961 0.482329
13922.73047 0.482053
13923.86035 0.481782
13924.99023 0.481608
13926.12012 0.481434
13927.25000 0.481259
13928.37988 0.481085
13929.50977 0.48091
13930.63965 0.480735
13931.76953 0.480561
13932.90039 0.480386
13934.03027 0.480208
13935.16016 0.480017
13936.29004 0.479826
13937.41992 0.479635
13938.54980 0.479444
13939.67969 0.479252
13940.80957 0.479061
13941.95020 0.478869
13943.08008 0.478677
13944.20996 0.478411
13945.33984 0.478006
13946.46973 0.477602
13947.59961 0.477197
13948.73047 0.476792
13949.86035 0.476386
13951.00000 0.47598
13952.12988 0.475574
13953.25977 0.475168
13954.38965 0.474504
13955.51953 0.473591
13956.66016 0.472677
13957.79004 0.471762
13958.91992 0.470848
13960.04980 0.469932
13961.17969 0.469017
13962.32031 0.468101
13963.45020 0.467184
13964.58008 0.465647
13965.71973 0.463812
13966.84961 0.461976
13967.98047 0.460139
13969.12012 0.4583
13970.25000 0.456462
13971.37988 0.454622
13972.50977 0.452781
13973.65039 0.450938
13974.78027 0.448001
13975.91992 0.444865
13977.04980 0.441728
13978.17969 0.438589
13979.32031 0.435446
13980.45020 0.432304
13981.58008 0.429161
13982.71973 0.426013
13983.84961 0.42283
13984.99023 0.418318
13986.12012 0.413809
13987.25977 0.409293
13988.38965 0.404775
13989.53027 0.400255
13990.66016 0.395734
13991.79980 0.391206
13992.92969 0.38668
13994.07031 0.381902
13995.20020 0.376195
13996.33984 0.37049
13997.46973 0.364777
13998.61035 0.359062
13999.74023 0.353344
14000.87988 0.347594
14002.01953 0.341834
14003.15039 0.336072
14004.29004 0.329964
14005.41992 0.323349
14006.55957 0.316727
14007.70020 0.310109
14008.83008 0.303484
14009.96973 0.296857
14011.09961 0.290234
14012.24023 0.283604
14013.37988 0.276973
14014.50977 0.270307
14015.65039 0.263618
14016.79004 0.256922
14017.92969 0.250231
14019.05957 0.243531
14020.20020 0.236837
14021.33984 0.230134
14022.48047 0.223431
14023.61035 0.216731
14024.75000 0.210414
14025.88965 0.204188
14027.03027 0.197961
14028.16016 0.191727
14029.29980 0.185498
14030.44043 0.179267
14031.58008 0.173029
14032.71973 0.166795
14033.84961 0.160572
14034.99023 0.155402
14036.12988 0.150231
14037.26953 0.14506
14038.41016 0.139887
14039.54980 0.134713
14040.69043 0.129537
14041.83008 0.124356
14042.95996 0.119179
14044.09961 0.114268
14045.24023 0.11025
14046.37988 0.106227
14047.51953 0.102204
14048.66016 0.098179
14049.79980 0.094154
14050.94043 0.090128
14052.08008 0.086101
14053.21973 0.082073
14054.36035 0.078541
14055.50000 0.075607
14056.63965 0.072671
14057.78027 0.069736
14058.91992 0.066798
14060.05957 0.063859
14061.20020 0.060919
14062.33984 0.057979
14063.48047 0.055038
14064.62988 0.052644
14065.76953 0.050503
14066.91016 0.048362
14068.04980 0.046218
14069.19043 0.044075
14070.33008 0.041932
14071.46973 0.03979
14072.61035 0.037648
14073.75977 0.035505
14074.90039 0.034036
14076.04004 0.032624
14077.17969 0.03121
14078.32031 0.029797
14079.45996 0.028383
14080.61035 0.026967
14081.75000 0.025548
14082.88965 0.024131
14084.03027 0.022803
14085.17969 0.021943
14086.32031 0.021084
14087.45996 0.020224
14088.61035 0.019364
14089.75000 0.018504
14090.88965 0.017644
14092.03027 0.016783
14093.17969 0.015921
14094.32031 0.015178
14095.45996 0.014602
14096.61035 0.014026
14097.75000 0.01345
14098.88965 0.012874
14100.04004 0.012298
14101.17969 0.011721
14102.33008 0.011144
14103.46973 0.010568
14104.61035 0.010114
14105.75977 0.009723
14106.90039 0.009332
14108.04980 0.008941
14109.19043 0.00855
14110.33984 0.008159
14111.48047 0.007767
14112.62988 0.007376
14113.76953 0.006984
14114.91992 0.006751
14116.05957 0.006531
14117.20996 0.006311
14118.34961 0.006091
14119.50000 0.005871
14120.63965 0.00565
14121.79004 0.00543
14122.92969 0.00521
14124.08008 0.005002
14125.21973 0.004849
14126.37012 0.004695
14127.51953 0.004541
14128.66016 0.004388
14129.80957 0.004234
14130.95020 0.00408
14132.09961 0.003926
14133.25000 0.003772
14134.38965 0.003646
14135.54004 0.003551
14136.69043 0.003457
14137.83008 0.003362
14138.98047 0.003268
14140.12988 0.003173
14141.26953 0.003079
14142.41992 0.002984
14143.57031 0.002889
14144.71973 0.002788
14145.86035 0.002685
14147.00977 0.002581
14148.16016 0.002478
14149.30957 0.002374
14150.45996 0.00227
14151.59961 0.002167
14152.75000 0.002063
14153.90039 0.001961
14155.04980 0.001892
14156.20020 0.001824
14157.33984 0.001756
14158.49023 0.001688
14159.63965 0.00162
14160.79004 0.001552
14161.94043 0.001484
14163.08984 0.001415
14164.24023 0.001353
14165.37988 0.001305
14166.53027 0.001256
14167.67969 0.001208
14168.83008 0.001159
14169.98047 0.001111
14171.12988 0.001062
14172.28027 0.001014
14173.42969 0.000965
14174.58008 0.000919
14175.73047 0.000875
14176.87988 0.000831
14178.03027 0.000787
14179.17969 0.000742
14180.33008 0.000698
14181.48047 0.000654
14182.62988 0.000609
14183.78027 0.000565
14184.92969 0.000562
14186.08008 0.000562
14187.23047 0.000563
14188.38965 0.000564
14189.54004 0.000564
14190.69043 0.000565
14191.83984 0.000566
14192.99023 0.000566
14194.13965 0.000564
14195.29004 0.000552
14196.44043 0.000539
14197.59961 0.000527
14198.75000 0.000515
14199.90039 0.000503
14201.04980 0.00049
14202.20020 0.000478
14203.36035 0.000466
14204.50977 0.000454
14205.66016 0.000441
14206.80957 0.000429
14207.95996 0.000417
14209.12012 0.000404
15630.03223 0.0
