# %ECSV 0.9
# ---
# datatype:
# - {name: wavelength, unit: Angstrom, datatype: float32}
# - {name: response, datatype: float32}
# meta: !!omap
# - {band_name: F814W}
# - {group_name: WFC3_UVIS1}
wavelength response
6246.43115 0.0
6940.47900 0.000405
6941.66699 0.000423
6942.85400 0.00045
6944.04199 0.00048
6945.22998 0.00051
6946.41797 0.000539
6947.60693 0.000569
6948.79492 0.000598
6949.98389 0.000628
6951.17285 0.000657
6952.36279 0.000693
6953.55176 0.000739
6954.74219 0.000785
6955.93213 0.000832
6957.12207 0.000878
6958.31299 0.000924
6959.50293 0.00097
6960.69385 0.001016
6961.88477 0.001063
6963.07617 0.001136
6964.26709 0.001211
6965.45801 0.001286
6966.64990 0.00136
6967.84180 0.001435
6969.03516 0.001509
6970.22705 0.001584
6971.41895 0.001658
6972.61182 0.001761
6973.80518 0.001883
6974.99902 0.002005
6976.19189 0.002128
6977.38477 0.00225
6978.57910 0.002372
6979.77295 0.002494
6980.96680 0.002617
6982.16211 0.002755
6983.35596 0.002959
6984.55078 0.003163
6985.74609 0.003366
6986.94092 0.00357
6988.13721 0.003774
6989.33301 0.003977
6990.52783 0.004181
6991.72412 0.004384
6992.91992 0.004708
6994.11719 0.005056
6995.31299 0.005404
6996.50977 0.005753
6997.70801 0.006101
6998.90479 0.006449
7000.10303 0.006796
7001.29980 0.007142
7002.49805 0.007598
7003.69580 0.008176
7004.89404 0.008753
7006.09277 0.00933
7007.29199 0.009906
7008.49023 0.010482
7009.68896 0.011058
7010.88916 0.011634
7012.08789 0.01226
7013.28809 0.013225
7014.48779 0.014189
7015.68799 0.015153
7016.88916 0.016116
7018.08887 0.017079
7019.29004 0.018041
7020.49121 0.019002
7021.69189 0.019961
7022.89307 0.021423
7024.09521 0.023014
7025.29688 0.024603
7026.49902 0.026191
7027.70117 0.027777
7028.90283 0.029363
7030.10596 0.030947
7031.30908 0.032532
7032.51221 0.034546
7033.71484 0.037031
7034.91797 0.039515
7036.12207 0.041997
7037.32617 0.044476
7038.52979 0.046955
7039.73389 0.049432
7040.93799 0.051908
7042.14307 0.054533
7043.34814 0.05791
7044.55322 0.061284
7045.75781 0.064655
7046.96387 0.068025
7048.16895 0.071392
7049.37500 0.074757
7050.58203 0.078116
7051.78809 0.081469
7052.99512 0.085574
7054.20117 0.089787
7055.40820 0.093997
7056.61523 0.098202
7057.82324 0.102405
7059.02979 0.106604
7060.23779 0.110801
7061.44580 0.115005
7062.65381 0.119398
7063.86182 0.123922
7065.07080 0.128446
7066.27979 0.132965
7067.48877 0.137481
7068.69824 0.141995
7069.90820 0.146506
7071.11719 0.150998
7072.32715 0.15529
7073.53711 0.159146
7074.74707 0.162997
7075.95801 0.166846
7077.16797 0.170693
7078.37891 0.174535
7079.58984 0.178373
7080.80176 0.182222
7082.01318 0.186016
7083.22510 0.18872
7084.43701 0.191421
7085.64893 0.194122
7086.86084 0.19682
7088.07422 0.199517
7089.28613 0.202211
7090.50000 0.204896
7091.71191 0.207565
7092.92578 0.209407
7094.13916 0.211041
7095.35303 0.212674
7096.56689 0.214305
7097.78076 0.215935
7098.99609 0.217564
7100.20996 0.219195
7101.42480 0.220844
7102.64014 0.222054
7103.85498 0.222922
7105.07080 0.223789
7106.28613 0.224656
7107.50195 0.225522
7108.71777 0.226387
7109.93506 0.227252
7111.15088 0.228116
7112.36816 0.228812
7113.58398 0.229173
7114.80176 0.229535
7116.01904 0.229896
7117.23584 0.230256
7118.45410 0.230616
7119.67188 0.230976
7120.89014 0.231318
7122.10791 0.231622
7123.32715 0.231695
7124.54590 0.231768
7125.76514 0.231841
7126.98389 0.231913
7128.20410 0.231986
7129.42285 0.232058
7130.64307 0.232144
7131.86279 0.232241
7133.08301 0.232234
7134.30420 0.232217
7135.52393 0.2322
7136.74512 0.232183
7137.96582 0.232166
7139.18799 0.23215
7140.40918 0.232124
7141.62988 0.232083
7142.85303 0.231986
7144.07520 0.231869
7145.29688 0.231751
7146.52002 0.231633
7147.74219 0.231516
7148.96484 0.231399
7150.18799 0.231285
7151.41211 0.231192
7152.63477 0.231087
7153.85889 0.23097
7155.08301 0.230854
7156.30713 0.230738
7157.53076 0.230621
7158.75586 0.230505
7159.98096 0.230389
7161.20605 0.230248
7162.43115 0.230094
7163.65723 0.229919
7164.88184 0.229743
7166.10791 0.229568
7167.33398 0.229392
7168.56104 0.229217
7169.78711 0.229042
7171.01416 0.228887
7172.24121 0.228732
7173.46777 0.228561
7174.69482 0.228389
7175.92285 0.228218
7177.14990 0.228047
7178.37793 0.227875
7179.60596 0.227704
7180.83496 0.227533
7182.06299 0.22736
7183.29199 0.227158
7184.52100 0.226956
7185.75000 0.226754
7186.97998 0.226552
7188.20996 0.22635
7189.43896 0.226148
7190.66992 0.225933
7191.89990 0.225708
7193.12988 0.225477
7194.36084 0.225246
7195.59180 0.225015
7196.82324 0.224784
7198.05518 0.224554
7199.28613 0.224323
7200.51807 0.224103
7201.75000 0.223897
7202.98193 0.223685
7204.21387 0.223471
7205.44678 0.223258
7206.68018 0.223045
7207.91309 0.222831
7209.14600 0.222618
7210.37891 0.222398
7211.61279 0.222161
7212.84717 0.221937
7214.08105 0.221718
7215.31494 0.2215
7216.54980 0.221282
7217.78516 0.221064
7219.02002 0.220847
7220.25488 0.220634
7221.49023 0.22044
7222.72607 0.220245
7223.96094 0.22005
7225.19678 0.219854
7226.43408 0.219659
7227.66992 0.219463
7228.90723 0.219268
7230.14404 0.219068
7231.37988 0.218839
7232.61816 0.218635
7233.85498 0.218455
7235.09277 0.218275
7236.33105 0.218096
7237.56885 0.217916
7238.80713 0.217737
7240.04492 0.217558
7241.28418 0.217403
7242.52295 0.21726
7243.76221 0.217134
7245.00195 0.217009
7246.24121 0.216884
7247.48096 0.216758
7248.72119 0.216633
7249.96094 0.216507
7251.20215 0.216359
7252.44189 0.21623
7253.68311 0.216136
7254.92383 0.216043
7256.16602 0.215949
7257.40723 0.215855
7258.64893 0.215761
7259.89111 0.215668
7261.13281 0.215595
7262.37500 0.215527
7263.61816 0.215465
7264.85986 0.215402
7266.10400 0.215339
7267.34717 0.215277
7268.58984 0.215214
7269.83398 0.215151
7271.07812 0.215089
7272.32178 0.215042
7273.56592 0.215041
7274.81104 0.215039
7276.05518 0.215038
7277.29980 0.215037
7278.54492 0.215035
7279.79102 0.215034
7281.03613 0.215012
7282.28223 0.214989
7283.52783 0.214972
7284.77393 0.214955
7286.02002 0.214938
7287.26709 0.214921
7288.51416 0.214904
7289.76123 0.214887
7291.00781 0.214889
7292.25488 0.214904
7293.50293 0.214952
7294.75098 0.215001
7295.99902 0.21505
7297.24707 0.215098
7298.49609 0.215146
7299.74512 0.215194
7300.99414 0.215224
7302.24316 0.215248
7303.49219 0.215271
7304.74219 0.215293
7305.99121 0.215316
7307.24121 0.215339
7308.49219 0.215361
7309.74219 0.215384
7310.99316 0.215425
7312.24414 0.215475
7313.49512 0.215543
7314.74609 0.215611
7315.99805 0.215679
7317.24902 0.215747
7318.50098 0.215814
7319.75293 0.215882
7321.00586 0.21593
7322.25781 0.215974
7323.51123 0.216018
7324.76416 0.216061
7326.01709 0.216105
7327.27100 0.216148
7328.52393 0.216192
7329.77783 0.216235
7331.03223 0.216298
7332.28711 0.216362
7333.54102 0.216414
7334.79590 0.216466
7336.05078 0.216518
7337.30615 0.21657
7338.56201 0.216622
7339.81689 0.216673
7341.07324 0.216704
7342.32910 0.216733
7343.58496 0.216765
7344.84082 0.216797
7346.09814 0.216829
7347.35498 0.216861
7348.61182 0.216893
7349.86914 0.216924
7351.12695 0.216977
7352.38477 0.21702
7353.64307 0.217029
7354.90088 0.217038
7356.15918 0.217047
7357.41797 0.217056
7358.67676 0.217065
7359.93604 0.217074
7361.19482 0.21706
7362.45410 0.217038
7363.71387 0.217005
7364.97412 0.216972
7366.23389 0.216938
7367.49414 0.216905
7368.75488 0.216871
7370.01611 0.216838
7371.27588 0.216829
7372.53809 0.216801
7373.79883 0.216745
7375.06104 0.21669
7376.32324 0.216634
7377.58398 0.216579
7378.84717 0.216523
7380.10889 0.216465
7381.37207 0.216385
7382.63477 0.216296
7383.89795 0.216197
7385.16211 0.216097
7386.42480 0.215998
7387.68896 0.215898
7388.95312 0.215799
7390.21680 0.215704
7391.48096 0.215628
7392.74609 0.215546
7394.01123 0.215457
7395.27588 0.215369
7396.54199 0.21528
7397.80713 0.215192
7399.07324 0.215103
7400.33789 0.215008
7401.60400 0.214896
7402.87109 0.214734
7404.13818 0.214546
7405.40381 0.214358
7406.67090 0.21417
7407.93799 0.213983
7409.20605 0.213795
7410.47412 0.213617
7411.74219 0.213454
7413.00977 0.213294
7414.27783 0.213135
7415.54688 0.212976
7416.81494 0.212818
7418.08398 0.212659
7419.35400 0.212501
7420.62305 0.212331
7421.89307 0.212149
7423.16309 0.21193
7424.43311 0.211706
7425.70312 0.211482
7426.97314 0.211258
7428.24414 0.211035
7429.51514 0.210811
7430.78613 0.210611
7432.05811 0.210426
7433.32910 0.21024
7434.60107 0.210053
7435.87305 0.209867
7437.14502 0.209681
7438.41699 0.209495
7439.68994 0.209309
7440.96289 0.209106
7442.23584 0.208895
7443.50977 0.208678
7444.78320 0.208461
7446.05713 0.208245
7447.33105 0.208028
7448.60498 0.207811
7449.87891 0.207595
7451.15381 0.2074
7452.42920 0.207208
7453.70410 0.207017
7454.97900 0.206826
7456.25488 0.206636
7457.53076 0.206445
7458.80713 0.206255
7460.08301 0.206063
7461.35889 0.20585
7462.63623 0.205637
7463.91309 0.205425
7465.18896 0.205214
7466.46680 0.205003
7467.74414 0.204792
7469.02197 0.20458
7470.29980 0.204375
7471.57812 0.204187
7472.85596 0.203995
7474.13477 0.2038
7475.41406 0.203604
7476.69189 0.203409
7477.97217 0.203214
7479.25098 0.20302
7480.53076 0.202815
7481.81104 0.202598
7483.09082 0.202435
7484.37109 0.202286
7485.65186 0.202137
7486.93311 0.201988
7488.21289 0.201839
7489.49512 0.201689
7490.77588 0.201555
7492.05811 0.201429
7493.33887 0.201294
7494.62207 0.201159
7495.90381 0.201024
7497.18701 0.200889
7498.46924 0.200755
7499.75195 0.20062
7501.03516 0.20046
7502.31885 0.200305
7503.60205 0.200195
7504.88623 0.200084
7506.16992 0.199974
7507.45508 0.199864
7508.73877 0.199754
7510.02295 0.199644
7511.30908 0.199557
7512.59424 0.199468
7513.87891 0.199376
7515.16504 0.199284
7516.45020 0.199191
7517.73584 0.199099
7519.02197 0.199007
7520.30908 0.198909
7521.59619 0.198795
7522.88281 0.198704
7524.16992 0.198628
7525.45703 0.198552
7526.74512 0.198476
7528.03320 0.1984
7529.32080 0.198324
7530.60889 0.198259
7531.89697 0.198206
7533.18604 0.198167
7534.47510 0.198132
7535.76416 0.198096
7537.05322 0.19806
7538.34277 0.198023
7539.63184 0.197987
7540.92188 0.197935
7542.21289 0.19788
7543.50293 0.197851
7544.79395 0.197821
7546.08398 0.197792
7547.37598 0.197763
7548.66699 0.197734
7549.95801 0.197704
7551.25000 0.197697
7552.54199 0.197699
7553.83398 0.197718
7555.12695 0.197737
7556.41895 0.197756
7557.71191 0.197774
7559.00488 0.197792
7560.29883 0.197805
7561.59180 0.197801
7562.88623 0.197802
7564.18018 0.197807
7565.47412 0.197812
7566.76904 0.197817
7568.06299 0.197822
7569.35791 0.197826
7570.65283 0.197842
7571.94922 0.197869
7573.24414 0.197884
7574.54004 0.197898
7575.83594 0.197911
7577.13184 0.197924
7578.42822 0.197937
7579.72510 0.19795
7581.02197 0.197945
7582.31885 0.197941
7583.61621 0.197964
7584.91406 0.197988
7586.21094 0.198012
7587.50879 0.198035
7588.80811 0.198058
7590.10596 0.198083
7591.40479 0.198129
7592.70410 0.198147
7594.00195 0.198132
7595.30176 0.198117
7596.60205 0.198102
7597.90088 0.198087
7599.20117 0.198072
7600.50098 0.198047
7601.80176 0.198009
7603.10303 0.198003
7604.40283 0.198006
7605.70410 0.198009
7607.00488 0.198011
7608.30713 0.198014
7609.60889 0.198016
7610.91113 0.198019
7612.21289 0.198016
7613.51514 0.197964
7614.81787 0.197912
7616.12109 0.19786
7617.42383 0.197808
7618.72705 0.197756
7620.03076 0.197704
7621.33398 0.197675
7622.63916 0.197633
7623.94287 0.197574
7625.24707 0.197514
7626.55176 0.197455
7627.85596 0.197395
7629.16211 0.197336
7630.46680 0.197258
7631.77197 0.197147
7633.07812 0.197023
7634.38379 0.196895
7635.68994 0.196767
7636.99707 0.196639
7638.30420 0.196511
7639.60986 0.196383
7640.91699 0.196271
7642.22510 0.196163
7643.53223 0.196025
7644.83984 0.195888
7646.14795 0.19575
7647.45605 0.195612
7648.76514 0.195474
7650.07324 0.195335
7651.38184 0.195175
7652.69092 0.195002
7654.00000 0.194815
7655.31006 0.194628
7656.62012 0.194441
7657.93018 0.194255
7659.24023 0.194068
7660.55078 0.193891
7661.86084 0.193727
7663.17188 0.193559
7664.48291 0.19339
7665.79492 0.19322
7667.10596 0.193051
7668.41797 0.192882
7669.72998 0.192713
7671.04199 0.192526
7672.35498 0.192327
7673.66699 0.192099
7674.97998 0.19187
7676.29297 0.191641
7677.60693 0.191413
7678.92090 0.191185
7680.23389 0.190961
7681.54785 0.190756
7682.86279 0.190546
7684.17676 0.190332
7685.49219 0.190118
7686.80713 0.189905
7688.12207 0.189692
7689.43701 0.189479
7690.75293 0.189253
7692.06885 0.189018
7693.38477 0.18879
7694.70117 0.188562
7696.01807 0.188334
7697.33398 0.188107
7698.65088 0.18788
7699.96924 0.187653
7701.28613 0.187426
7702.60400 0.187193
7703.92188 0.186949
7705.24023 0.186705
7706.55811 0.186462
7707.87695 0.186219
7709.19482 0.185976
7710.51514 0.185742
7711.83301 0.185521
7713.15283 0.185308
7714.47314 0.185098
7715.79297 0.184888
7717.11279 0.184678
7718.43311 0.184469
7719.75391 0.184259
7721.07520 0.184032
7722.39600 0.183802
7723.71680 0.183577
7725.03906 0.183352
7726.35986 0.183128
7727.68213 0.182903
7729.00391 0.182679
7730.32715 0.18246
7731.64893 0.182258
7732.97217 0.182058
7734.29492 0.181858
7735.61914 0.181658
7736.94189 0.181459
7738.26611 0.18126
7739.58984 0.181061
7740.91406 0.180847
7742.23779 0.180629
7743.56299 0.180432
7744.88818 0.180237
7746.21289 0.180041
7747.53809 0.179845
7748.86377 0.179649
7750.18896 0.179457
7751.51611 0.179283
7752.84180 0.179121
7754.16797 0.178969
7755.49512 0.178817
7756.82178 0.178665
7758.14893 0.178513
7759.47705 0.178362
7760.80420 0.178197
7762.13184 0.178024
7763.45996 0.177861
7764.78809 0.177697
7766.11719 0.177534
7767.44482 0.17737
7768.77393 0.177207
7770.10400 0.177044
7771.43311 0.176881
7772.76318 0.176734
7774.09277 0.176607
7775.42285 0.17648
7776.75293 0.176353
7778.08301 0.176226
7779.41504 0.176099
7780.74609 0.175983
7782.07715 0.175877
7783.40820 0.175746
7784.74023 0.175614
7786.07178 0.175482
7787.40381 0.17535
7788.73584 0.175218
7790.06885 0.175085
7791.40186 0.174932
7792.73486 0.174804
7794.06787 0.174706
7795.40186 0.174609
7796.73486 0.174511
7798.06885 0.174414
7799.40381 0.174316
7800.73779 0.17423
7802.07324 0.174154
7803.40820 0.17406
7804.74316 0.173965
7806.07812 0.173871
7807.41406 0.173776
7808.75000 0.173681
7810.08496 0.173585
7811.42188 0.173469
7812.75781 0.173381
7814.09521 0.173324
7815.43213 0.173267
7816.76904 0.173211
7818.10596 0.173154
7819.44385 0.173097
7820.78223 0.173052
7822.12012 0.173016
7823.45801 0.172953
7824.79688 0.172889
7826.13623 0.172825
7827.47510 0.172761
7828.81396 0.172697
7830.15283 0.172633
7831.49316 0.17257
7832.83301 0.172505
7834.17285 0.172439
7835.51416 0.172374
7836.85400 0.172308
7838.19482 0.172242
7839.53613 0.172176
7840.87695 0.17211
7842.21924 0.172044
7843.56104 0.171988
7844.90283 0.171931
7846.24512 0.171874
7847.58691 0.171817
7848.93018 0.17176
7850.27295 0.171708
7851.61621 0.171672
7852.95898 0.171625
7854.30322 0.171572
7855.64697 0.171519
7856.99121 0.171466
7858.33496 0.171413
7859.68018 0.17136
7861.02393 0.171291
7862.37012 0.171222
7863.71484 0.171182
7865.06006 0.171142
7866.40576 0.171102
7867.75195 0.171061
7869.09814 0.171021
7870.44385 0.170987
7871.79102 0.170968
7873.13818 0.17091
7874.48486 0.170838
7875.83203 0.170766
7877.18018 0.170694
7878.52686 0.170622
7879.87500 0.17055
7881.22412 0.170459
7882.57178 0.170375
7883.91992 0.170308
7885.27002 0.170241
7886.61914 0.170175
7887.96777 0.170108
7889.31689 0.170042
7890.66699 0.169975
7892.01807 0.169908
7893.36816 0.169811
7894.71777 0.16971
7896.06885 0.169609
7897.41992 0.169508
7898.77100 0.169407
7900.12305 0.169308
7901.47412 0.169228
7902.82617 0.169138
7904.17822 0.169039
7905.53076 0.168939
7906.88281 0.16884
7908.23584 0.16874
7909.58887 0.168641
7910.94189 0.168527
7912.29590 0.16841
7913.64893 0.168319
7915.00293 0.168229
7916.35791 0.168138
7917.71191 0.168047
7919.06689 0.167957
7920.42188 0.167872
7921.77686 0.167802
7923.13184 0.16771
7924.48779 0.167608
7925.84424 0.167506
7927.20020 0.167404
7928.55615 0.167302
7929.91309 0.1672
7931.27002 0.167078
7932.62598 0.166962
7933.98389 0.166857
7935.34082 0.166753
7936.69922 0.166649
7938.05713 0.166544
7939.41504 0.16644
7940.77295 0.166335
7942.13184 0.166231
7943.49121 0.166106
7944.85010 0.16598
7946.20898 0.165854
7947.56885 0.165729
7948.92920 0.165603
7950.28906 0.165482
7951.64893 0.165377
7953.00879 0.165281
7954.37012 0.165191
7955.73096 0.165101
7957.09180 0.165012
7958.45410 0.164922
7959.81494 0.164832
7961.17676 0.164725
7962.53906 0.164615
7963.90088 0.164505
7965.26416 0.164395
7966.62695 0.164285
7967.99023 0.164175
7969.35303 0.164065
7970.71680 0.163956
7972.08105 0.163846
7973.44385 0.163748
7974.80908 0.16365
7976.17285 0.163553
7977.53809 0.163455
7978.90283 0.163358
7980.26807 0.163265
7981.63281 0.163189
7982.99902 0.163105
7984.36523 0.163013
7985.73096 0.162922
7987.09717 0.162831
7988.46387 0.16274
7989.83105 0.162648
7991.19678 0.162543
7992.56494 0.162435
7993.93213 0.162327
7995.29980 0.162218
7996.66797 0.16211
7998.03613 0.162002
7999.40381 0.161894
8000.77295 0.161786
8002.14209 0.161678
8003.51123 0.161595
8004.87988 0.161513
8006.25000 0.161431
8007.62012 0.16135
8008.99023 0.161268
8010.35986 0.161181
8011.73096 0.161082
8013.10205 0.160986
8014.47314 0.160891
8015.84424 0.160797
8017.21484 0.160702
8018.58691 0.160607
8019.95898 0.160513
8021.33105 0.160419
8022.70410 0.160321
8024.07617 0.160215
8025.44922 0.160109
8026.82178 0.160002
8028.19482 0.159896
8029.56885 0.159789
8030.94287 0.159698
8032.31689 0.159617
8033.69092 0.159564
8035.06592 0.159511
8036.43994 0.159458
8037.81494 0.159404
8039.19092 0.159351
8040.56592 0.159289
8041.94189 0.159216
8043.31787 0.1591
8044.69385 0.158974
8046.06982 0.158849
8047.44678 0.158723
8048.82422 0.158598
8050.20117 0.158472
8051.57812 0.158347
8052.95605 0.158251
8054.33301 0.158181
8055.71191 0.158111
8057.08984 0.158042
8058.46924 0.157972
8059.84717 0.157902
8061.22705 0.157849
8062.60498 0.157784
8063.98486 0.15768
8065.36523 0.157577
8066.74512 0.157473
8068.12500 0.157369
8069.50488 0.157266
8070.88623 0.157149
8072.26709 0.157026
8073.64795 0.15691
8075.02881 0.156793
8076.41113 0.156677
8077.79199 0.156561
8079.17480 0.156444
8080.55713 0.156328
8081.93896 0.156212
8083.32178 0.156088
8084.70605 0.155961
8086.08887 0.155835
8087.47217 0.155709
8088.85596 0.155582
8090.24023 0.155459
8091.62402 0.155353
8093.00781 0.155232
8094.39307 0.155099
8095.77783 0.154967
8097.16309 0.154835
8098.54785 0.154703
8099.93408 0.154571
8101.31982 0.15442
8102.70605 0.154269
8104.09180 0.154118
8105.47900 0.153967
8106.86621 0.153816
8108.25293 0.153666
8109.64014 0.153515
8111.02783 0.153364
8112.41602 0.153212
8113.80322 0.153043
8115.19092 0.152875
8116.58008 0.152707
8117.96924 0.152539
8119.35791 0.152371
8120.74707 0.152214
8122.13623 0.152065
8123.52588 0.151901
8124.91602 0.151735
8126.30615 0.15157
8127.69580 0.151405
8129.08691 0.151239
8130.47803 0.151067
8131.86914 0.150883
8133.25977 0.15068
8134.65186 0.15047
8136.04297 0.150261
8137.43604 0.150051
8138.82812 0.149842
8140.22021 0.149633
8141.61279 0.149424
8143.00586 0.14922
8144.39893 0.149021
8145.79297 0.148821
8147.18701 0.148622
8148.58105 0.148422
8149.97510 0.148223
8151.36914 0.148043
8152.76416 0.147867
8154.15918 0.147697
8155.55420 0.147528
8156.94922 0.147359
8158.34521 0.147189
8159.74121 0.14702
8161.13721 0.146836
8162.53320 0.146639
8163.93018 0.14641
8165.32617 0.146182
8166.72314 0.145953
8168.12109 0.145725
8169.51807 0.145496
8170.91602 0.145268
8172.31396 0.145041
8173.71191 0.144815
8175.11084 0.144589
8176.50879 0.144364
8177.90820 0.144138
8179.30811 0.143913
8180.70703 0.143697
8182.10596 0.143491
8183.50586 0.143302
8184.90723 0.143115
8186.30713 0.142927
8187.70801 0.14274
8189.10791 0.142553
8190.50977 0.14236
8191.91113 0.142155
8193.31152 0.141945
8194.71484 0.141732
8196.11621 0.141521
8197.51855 0.141309
8198.92090 0.141097
8200.32422 0.140887
8201.72754 0.140678
8203.13086 0.14048
8204.53418 0.140289
8205.93848 0.140098
8207.34180 0.139907
8208.74609 0.139716
8210.15039 0.139527
8211.55469 0.139354
8212.95996 0.139181
8214.36523 0.139006
8215.77148 0.138832
8217.17676 0.138657
8218.58203 0.138483
8219.98828 0.138309
8221.39453 0.138117
8222.80176 0.137934
8224.20801 0.137766
8225.61523 0.137598
8227.02246 0.137429
8228.43066 0.137261
8229.83789 0.137093
8231.24609 0.136935
8232.65430 0.136782
8234.06348 0.136637
8235.47168 0.136493
8236.88086 0.136348
8238.29004 0.136203
8239.70020 0.136059
8241.10938 0.135928
8242.51953 0.135808
8243.92969 0.135717
8245.34082 0.135627
8246.75098 0.135536
8248.16211 0.135445
8249.57324 0.135354
8250.98438 0.135251
8252.39648 0.135143
8253.80859 0.135033
8255.22070 0.134923
8256.63281 0.134814
8258.04590 0.134704
8259.45898 0.134594
8260.87207 0.134484
8262.28516 0.134374
8263.69922 0.134276
8265.11230 0.134178
8266.52637 0.134079
8267.94141 0.133981
8269.35547 0.133882
8270.77148 0.133793
8272.18555 0.133713
8273.60059 0.133662
8275.01660 0.133613
8276.43262 0.133564
8277.84863 0.133515
8279.26465 0.133466
8280.68164 0.133409
8282.09766 0.133342
8283.51465 0.133276
8284.93262 0.13321
8286.34961 0.133144
8287.76758 0.133077
8289.18555 0.133011
8290.60352 0.132945
8292.02246 0.132879
8293.44141 0.132849
8294.86035 0.132827
8296.27930 0.132806
8297.69824 0.132784
8299.11816 0.132762
8300.53809 0.13274
8301.95801 0.132718
8303.37891 0.132672
8304.79980 0.13262
8306.22070 0.132568
8307.64160 0.132516
8309.06152 0.132464
8310.48438 0.132417
8311.90625 0.132383
8313.32812 0.132372
8314.75098 0.132371
8316.17383 0.132369
8317.59668 0.132368
8319.01953 0.132366
8320.44238 0.132359
8321.86621 0.132339
8323.29004 0.132327
8324.71387 0.132317
8326.13867 0.132308
8327.56348 0.132298
8328.98828 0.132288
8330.41309 0.132278
8331.83789 0.132268
8333.26367 0.132266
8334.68945 0.132267
8336.11523 0.132267
8337.54199 0.132268
8338.96875 0.132268
8340.39648 0.132273
8341.82227 0.132291
8343.24902 0.132301
8344.67676 0.132307
8346.10352 0.132313
8347.53223 0.132318
8348.96094 0.132324
8350.38965 0.132325
8351.81836 0.132312
8353.24707 0.132294
8354.67578 0.132272
8356.10547 0.13225
8357.53516 0.132228
8358.96484 0.132206
8360.39648 0.132184
8361.82617 0.132161
8363.25684 0.132143
8364.68652 0.132126
8366.11816 0.132108
8367.54980 0.132091
8368.98145 0.132074
8370.41309 0.132056
8371.84570 0.132038
8373.27832 0.132022
8374.71094 0.132006
8376.14355 0.13199
8377.57617 0.131974
8379.00977 0.131958
8380.44336 0.131947
8381.87695 0.131948
8383.31152 0.131936
8384.74609 0.131919
8386.18066 0.131902
8387.61523 0.131885
8389.04980 0.131868
8390.48535 0.131844
8391.92090 0.131809
8393.35742 0.131768
8394.79297 0.131724
8396.22852 0.13168
8397.66602 0.131636
8399.10254 0.131592
8400.54004 0.131553
8401.97656 0.131523
8403.41406 0.131464
8404.85254 0.131396
8406.29004 0.131329
8407.72852 0.131262
8409.16699 0.131194
8410.60547 0.131134
8412.04492 0.131084
8413.48438 0.131041
8414.92383 0.130999
8416.36328 0.130958
8417.80371 0.130916
8419.24316 0.130875
8420.68457 0.130825
8422.12500 0.130765
8423.56543 0.130679
8425.00684 0.130589
8426.44824 0.130499
8427.89062 0.130409
8429.33203 0.130319
8430.77441 0.130238
8432.21680 0.130165
8433.65918 0.130079
8435.10254 0.129992
8436.54590 0.129905
8437.98926 0.129819
8439.43262 0.129731
8440.87695 0.129644
8442.32129 0.129557
8443.76562 0.129442
8445.20996 0.129327
8446.65527 0.129211
8448.10059 0.129096
8449.54590 0.12898
8450.99121 0.128877
8452.43652 0.12878
8453.88379 0.128699
8455.33008 0.128619
8456.77637 0.128538
8458.22363 0.128457
8459.67090 0.128375
8461.11816 0.128281
8462.56543 0.128182
8464.01367 0.128081
8465.46191 0.12798
8466.91016 0.127879
8468.35840 0.127778
8469.80762 0.127677
8471.25684 0.127577
8472.70605 0.127468
8474.15527 0.127337
8475.60547 0.127206
8477.05566 0.127075
8478.50586 0.126944
8479.95703 0.126813
8481.40723 0.126683
8482.85840 0.126478
8484.31055 0.126145
8485.76172 0.125813
8487.21387 0.12548
8488.66602 0.125148
8490.11816 0.124817
8491.57031 0.124503
8493.02344 0.124277
8494.47656 0.124149
8495.92969 0.124021
8497.38379 0.123893
8498.83789 0.123764
8500.29199 0.123628
8501.74609 0.123462
8503.20020 0.123316
8504.65527 0.123184
8506.11035 0.123053
8507.56543 0.122922
8509.02148 0.12279
8510.47754 0.122659
8511.93359 0.122528
8513.38965 0.122343
8514.84668 0.122139
8516.30273 0.121934
8517.76074 0.12173
8519.21777 0.121525
8520.67480 0.121321
8522.13281 0.121117
8523.59082 0.120985
8525.04980 0.120866
8526.50781 0.120747
8527.96680 0.120628
8529.42578 0.120509
8530.88574 0.1204
8532.34473 0.120297
8533.80469 0.120162
8535.26465 0.120027
8536.72559 0.119891
8538.18555 0.119756
8539.64648 0.11962
8541.10742 0.119472
8542.56934 0.119321
8544.03027 0.119175
8545.49219 0.119029
8546.95410 0.118882
8548.41699 0.118736
8549.87988 0.11859
8551.34277 0.118443
8552.80566 0.118302
8554.26855 0.118173
8555.73242 0.118044
8557.19629 0.117915
8558.66016 0.117785
8560.12500 0.117656
8561.58887 0.117527
8563.05371 0.117395
8564.51953 0.117262
8565.98438 0.117129
8567.45020 0.116996
8568.91602 0.116863
8570.38184 0.116734
8571.84863 0.116617
8573.31543 0.116517
8574.78223 0.116427
8576.24902 0.116336
8577.71582 0.116245
8579.18359 0.116154
8580.65137 0.116057
8582.12012 0.115949
8583.58789 0.115822
8585.05664 0.11569
8586.52539 0.115558
8587.99512 0.115426
8589.46387 0.115294
8590.93359 0.115162
8592.40332 0.115032
8593.87402 0.11496
8595.34375 0.114888
8596.81445 0.114816
8598.28516 0.114744
8599.75684 0.114672
8601.22754 0.114599
8602.69922 0.114523
8604.17188 0.114432
8605.64355 0.114341
8607.11621 0.11425
8608.58887 0.114158
8610.06152 0.114068
8611.53418 0.113993
8613.00781 0.113919
8614.48145 0.113848
8615.95605 0.113777
8617.42969 0.113705
8618.90430 0.113634
8620.37891 0.113558
8621.85352 0.113471
8623.32910 0.113392
8624.80469 0.113317
8626.28027 0.113242
8627.75586 0.113168
8629.23242 0.113093
8630.70801 0.113034
8632.18457 0.112993
8633.66211 0.112954
8635.13867 0.112916
8636.61621 0.112878
8638.09375 0.11284
8639.57227 0.112801
8641.05078 0.112763
8642.52832 0.112728
8644.00781 0.112731
8645.48633 0.112734
8646.96582 0.112737
8648.44531 0.11274
8649.92480 0.112742
8651.40430 0.112745
8652.88477 0.11273
8654.36523 0.112685
8655.84570 0.11264
8657.32715 0.112594
8658.80859 0.112549
8660.29004 0.112506
8661.77148 0.112476
8663.25391 0.112474
8664.73535 0.11249
8666.21777 0.112507
8667.70117 0.112523
8669.18359 0.11254
8670.66699 0.112548
8672.15039 0.112548
8673.63477 0.112533
8675.11816 0.112516
8676.60254 0.112497
8678.08691 0.112479
8679.57227 0.112461
8681.05664 0.112442
8682.54199 0.112423
8684.02832 0.112403
8685.51367 0.112382
8687.00000 0.112361
8688.48633 0.11234
8689.97266 0.112319
8691.45898 0.112298
8692.94629 0.112272
8694.43359 0.112238
8695.92090 0.112204
8697.40918 0.112171
8698.89746 0.112137
8700.38574 0.112102
8701.87402 0.112068
8703.36328 0.112021
8704.85254 0.111969
8706.34180 0.111916
8707.83105 0.111863
8709.32129 0.11181
8710.81055 0.111766
8712.30176 0.111728
8713.79199 0.111736
8715.28320 0.111746
8716.77441 0.111756
8718.26562 0.111766
8719.75684 0.111775
8721.24902 0.111771
8722.74121 0.111754
8724.23340 0.111699
8725.72656 0.111644
8727.21875 0.111589
8728.71191 0.111533
8730.20605 0.111478
8731.69922 0.111423
8733.19336 0.111386
8734.68848 0.111366
8736.18164 0.111346
8737.67676 0.111326
8739.17188 0.111306
8740.66699 0.111285
8742.16211 0.111264
8743.65820 0.111244
8745.15430 0.111223
8746.65039 0.111202
8748.14648 0.111182
8749.64355 0.11116
8751.14062 0.111139
8752.63770 0.11111
8754.13574 0.111043
8755.63281 0.110976
8757.13086 0.110909
8758.62988 0.110841
8760.12793 0.110775
8761.62695 0.110723
8763.12598 0.110675
8764.62500 0.110631
8766.12500 0.110587
8767.62500 0.110543
8769.12500 0.110498
8770.62500 0.110448
8772.12598 0.110387
8773.62695 0.110307
8775.12793 0.110221
8776.62891 0.110136
8778.13086 0.11005
8779.63281 0.109965
8781.13477 0.109879
8782.63770 0.109798
8784.13965 0.109749
8785.64258 0.109699
8787.14648 0.109649
8788.64941 0.109599
8790.15332 0.109548
8791.65723 0.109497
8793.16113 0.109428
8794.66602 0.10934
8796.17090 0.109251
8797.67578 0.109163
8799.18066 0.109074
8800.68652 0.108976
8802.19238 0.108865
8803.69824 0.108745
8805.20410 0.108622
8806.71094 0.108499
8808.21777 0.108376
8809.72461 0.108254
8811.23145 0.108143
8812.73926 0.108041
8814.24707 0.107957
8815.75488 0.107872
8817.26367 0.107788
8818.77246 0.107703
8820.28125 0.107615
8821.79004 0.107515
8823.29980 0.107396
8824.80957 0.107265
8826.31934 0.107134
8827.82910 0.107002
8829.33984 0.106871
8830.85059 0.106754
8832.36133 0.106649
8833.87207 0.106572
8835.38379 0.106496
8836.89648 0.10642
8838.40723 0.106344
8839.91992 0.106268
8841.43164 0.106192
8842.94434 0.106102
8844.45801 0.105985
8845.97070 0.105869
8847.48438 0.105753
8848.99805 0.105636
8850.51172 0.10552
8852.02637 0.105403
8853.54102 0.105303
8855.05566 0.10521
8856.57129 0.105116
8858.08594 0.105022
8859.60156 0.104928
8861.11719 0.104834
8862.63379 0.104741
8864.15039 0.10465
8865.66699 0.104558
8867.18359 0.104467
8868.70020 0.104375
8870.21777 0.104286
8871.73535 0.104209
8873.25391 0.10412
8874.77148 0.10402
8876.29004 0.103919
8877.80859 0.103819
8879.32812 0.103718
8880.84668 0.103609
8882.36621 0.103493
8883.88574 0.1034
8885.40625 0.103307
8886.92676 0.103215
8888.44727 0.103122
8889.96777 0.103029
8891.48828 0.102937
8893.00977 0.10284
8894.53125 0.102737
8896.05371 0.102634
8897.57520 0.102531
8899.09766 0.102428
8900.62012 0.102324
8902.14355 0.102221
8903.66602 0.102116
8905.18945 0.102011
8906.71289 0.101906
8908.23730 0.1018
8909.76172 0.101695
8911.28613 0.101589
8912.81055 0.101482
8914.33496 0.101369
8915.86035 0.101257
8917.38574 0.101144
8918.91211 0.101031
8920.43848 0.100918
8921.96387 0.100805
8923.49023 0.100709
8925.01758 0.10062
8926.54395 0.100531
8928.07129 0.100442
8929.59863 0.100353
8931.12695 0.100263
8932.65527 0.100172
8934.18359 0.100072
8935.71191 0.099972
8937.24023 0.099872
8938.76953 0.099772
8940.29883 0.099675
8941.82910 0.099589
8943.35840 0.099503
8944.88867 0.099418
8946.41895 0.099332
8947.95020 0.099246
8949.48047 0.09916
8951.01172 0.099064
8952.54395 0.098963
8954.07520 0.098866
8955.60742 0.098768
8957.13965 0.098671
8958.67188 0.098573
8960.20508 0.098476
8961.73828 0.098378
8963.27148 0.098281
8964.80469 0.098185
8966.33887 0.098089
8967.87305 0.097993
8969.40723 0.097897
8970.94141 0.097801
8972.47656 0.097704
8974.01172 0.097626
8975.54688 0.097547
8977.08301 0.097467
8978.61816 0.097388
8980.15527 0.097309
8981.69141 0.097229
8983.22754 0.097143
8984.76465 0.09705
8986.30176 0.096957
8987.83984 0.096864
8989.37793 0.096771
8990.91602 0.096677
8992.45410 0.096584
8993.99219 0.096495
8995.53125 0.096406
8997.07031 0.096317
8998.60938 0.096228
9000.14941 0.096136
9001.68945 0.096028
9003.22852 0.095921
9004.76953 0.095815
9006.31055 0.09571
9007.85156 0.095604
9009.39258 0.095498
9010.93359 0.095401
9012.47559 0.09531
9014.01758 0.095225
9015.55957 0.095139
9017.10254 0.095053
9018.64648 0.094967
9020.18848 0.094879
9021.73145 0.094779
9023.27539 0.094672
9024.81934 0.09456
9026.36328 0.094448
9027.90723 0.094335
9029.45215 0.094223
9030.99707 0.094116
9032.54199 0.094013
9034.08789 0.093928
9035.63281 0.093842
9037.17871 0.093757
9038.72559 0.093671
9040.27148 0.093585
9041.81836 0.0935
9043.36523 0.093412
9044.91309 0.093322
9046.45996 0.093233
9048.00781 0.093143
9049.55664 0.093053
9051.10352 0.092963
9052.65332 0.092873
9054.20215 0.092778
9055.75098 0.092684
9057.30078 0.092589
9058.85059 0.092494
9060.40039 0.092399
9061.95020 0.092304
9063.50098 0.092215
9065.05176 0.09213
9066.60254 0.092045
9068.15332 0.091959
9069.70508 0.091873
9071.25684 0.091787
9072.80859 0.0917
9074.36133 0.091607
9075.91406 0.091514
9077.46680 0.091421
9079.01953 0.091328
9080.57324 0.09124
9082.12695 0.091161
9083.68066 0.091081
9085.23535 0.091
9086.78906 0.09092
9088.34375 0.090839
9089.89941 0.090758
9091.45410 0.090665
9093.00977 0.090575
9094.56543 0.090495
9096.12109 0.090415
9097.67773 0.090335
9099.23438 0.090254
9100.79102 0.090174
9102.34863 0.090093
9103.90527 0.089993
9105.46289 0.089892
9107.02148 0.08979
9108.57910 0.089688
9110.13770 0.089585
9111.69629 0.089483
9113.25586 0.089388
9114.81445 0.089299
9116.37402 0.089211
9117.93359 0.089122
9119.49414 0.089033
9121.05469 0.088944
9122.61523 0.088854
9124.17578 0.08876
9125.73633 0.088665
9127.29785 0.08857
9128.85938 0.088474
9130.42188 0.088379
9131.98340 0.088283
9133.54590 0.088189
9135.10938 0.088095
9136.67188 0.088001
9138.23535 0.087906
9139.79883 0.087812
9141.36230 0.087717
9142.92676 0.08762
9144.49121 0.087518
9146.05566 0.087416
9147.62012 0.087314
9149.18555 0.087212
9150.75098 0.087109
9152.31641 0.087007
9153.88184 0.086901
9155.44824 0.086795
9157.01465 0.086688
9158.58203 0.086582
9160.14844 0.086475
9161.71582 0.086368
9163.28320 0.086261
9164.85156 0.086155
9166.41895 0.086048
9167.98730 0.085941
9169.55566 0.085834
9171.12500 0.085727
9172.69434 0.08562
9174.26367 0.085514
9175.83301 0.085409
9177.40332 0.085303
9178.97363 0.085197
9180.54395 0.085095
9182.11426 0.085002
9183.68555 0.084901
9185.25684 0.084798
9186.82812 0.084694
9188.40039 0.08459
9189.97266 0.084486
9191.54492 0.084368
9193.11719 0.08425
9194.69043 0.08413
9196.26367 0.084009
9197.83691 0.083889
9199.41016 0.083768
9200.98438 0.083642
9202.55859 0.083513
9204.13281 0.08339
9205.70801 0.083266
9207.28320 0.083142
9208.85840 0.083019
9210.43359 0.082895
9212.00977 0.082771
9213.58594 0.082637
9215.16211 0.082498
9216.73926 0.082359
9218.31543 0.08222
9219.89258 0.08208
9221.47070 0.081941
9223.04785 0.081799
9224.62598 0.081651
9226.20410 0.081504
9227.78320 0.081356
9229.36230 0.081208
9230.94141 0.081063
9232.52148 0.080921
9234.09961 0.080784
9235.67969 0.080648
9237.25977 0.080511
9238.84082 0.080374
9240.42090 0.080237
9242.00195 0.0801
9243.58301 0.07996
9245.16504 0.079819
9246.74707 0.079678
9248.32910 0.079537
9249.91113 0.079395
9251.49414 0.079254
9253.07715 0.079111
9254.66016 0.078964
9256.24316 0.078817
9257.82715 0.078669
9259.41113 0.078522
9260.99512 0.078375
9262.58008 0.078227
9264.16406 0.078076
9265.74902 0.077924
9267.33496 0.077773
9268.91992 0.077621
9270.50586 0.077469
9272.09277 0.077318
9273.67871 0.07717
9275.26562 0.077024
9276.85254 0.076878
9278.43945 0.076731
9280.02734 0.076585
9281.61523 0.076439
9283.20312 0.07629
9284.79102 0.076137
9286.37988 0.075985
9287.96875 0.075832
9289.55762 0.075679
9291.14746 0.075527
9292.73633 0.075375
9294.32715 0.075231
9295.91699 0.075088
9297.50781 0.074944
9299.09863 0.0748
9300.68945 0.074661
9302.28027 0.074529
9303.87207 0.074396
9305.46387 0.074262
9307.05566 0.074128
9308.64844 0.073994
9310.24121 0.073859
9311.83398 0.073713
9313.42676 0.073568
9315.02148 0.073423
9316.61426 0.073278
9318.20801 0.073133
9319.80273 0.072987
9321.39746 0.072842
9322.99219 0.072698
9324.58691 0.072559
9326.18262 0.07242
9327.77832 0.07228
9329.37402 0.072141
9330.97070 0.072001
9332.56738 0.071862
9334.16406 0.071734
9335.76074 0.071607
9337.35840 0.071479
9338.95605 0.071351
9340.55371 0.071223
9342.15137 0.071095
9343.75000 0.070964
9345.34863 0.070833
9346.94727 0.070701
9348.54688 0.070569
9350.14648 0.070437
9351.74609 0.070305
9353.34570 0.070176
9354.94629 0.070051
9356.54688 0.069925
9358.14746 0.069799
9359.74902 0.069673
9361.35059 0.069547
9362.95215 0.069422
9364.55371 0.069301
9366.15625 0.06918
9367.75879 0.069059
9369.36133 0.068938
9370.96484 0.068817
9372.56738 0.068695
9374.17188 0.06858
9375.77539 0.068465
9377.37988 0.06835
9378.98340 0.068234
9380.58887 0.068119
9382.19336 0.068003
9383.79883 0.067886
9385.40430 0.067768
9387.00977 0.067651
9388.61621 0.067533
9390.22266 0.067415
9391.82910 0.067296
9393.43555 0.067178
9395.04297 0.067059
9396.65039 0.06694
9398.25781 0.066821
9399.86621 0.066701
9401.47461 0.066572
9403.08301 0.066441
9404.69141 0.06631
9406.30078 0.066179
9407.91016 0.066049
9409.51953 0.065917
9411.12988 0.065786
9412.74023 0.065654
9414.35059 0.065516
9415.96094 0.065378
9417.57227 0.065239
9419.18359 0.0651
9420.79492 0.064962
9422.40723 0.064823
9424.01953 0.064674
9425.63184 0.064524
9427.24414 0.064374
9428.85742 0.064224
9430.47070 0.064076
9432.08398 0.063932
9433.69727 0.06378
9435.31152 0.063624
9436.92578 0.063467
9438.54102 0.063311
9440.15527 0.063155
9441.77148 0.062998
9443.38574 0.062836
9445.00195 0.062667
9446.61816 0.062498
9448.23438 0.062329
9449.85059 0.062161
9451.46777 0.061992
9453.08496 0.061819
9454.70215 0.061638
9456.31934 0.061456
9457.93848 0.061275
9459.55566 0.061094
9461.17383 0.060913
9462.79297 0.06073
9464.41211 0.060537
9466.03125 0.060345
9467.65137 0.060153
9469.27148 0.05996
9470.89062 0.059768
9472.51172 0.059576
9474.13184 0.059371
9475.75293 0.059165
9477.37402 0.05896
9478.99609 0.058754
9480.61719 0.058549
9482.23926 0.058344
9483.86230 0.05813
9485.48438 0.057914
9487.10742 0.057698
9488.73047 0.057483
9490.35352 0.057267
9491.97754 0.057052
9493.60156 0.056832
9495.22656 0.05661
9496.85059 0.056388
9498.47559 0.056166
9500.10059 0.055948
9501.72656 0.055784
9503.35156 0.055615
9504.97754 0.055442
9506.60352 0.055269
9508.23047 0.055096
9509.85742 0.054923
9511.48438 0.05475
9513.11230 0.054574
9514.73926 0.05439
9516.36719 0.054205
9517.99609 0.054021
9519.62402 0.053837
9521.25293 0.053653
9522.88184 0.053469
9524.51172 0.053276
9526.14062 0.053084
9527.77148 0.052892
9529.40137 0.0527
9531.03125 0.052509
9532.66211 0.052317
9534.29297 0.052084
9535.92480 0.051852
9537.55566 0.05162
9539.18848 0.051389
9540.81934 0.051158
9542.45215 0.050927
9544.08496 0.05064
9545.71777 0.050348
9547.35059 0.050056
9548.98438 0.049765
9550.61816 0.049474
9552.25195 0.049184
9553.88672 0.048833
9555.52148 0.048464
9557.15625 0.048097
9558.79102 0.047731
9560.42676 0.047365
9562.06152 0.047
9563.69824 0.046537
9565.33496 0.046024
9566.97168 0.045512
9568.60840 0.045002
9570.24512 0.044493
9571.88281 0.043985
9573.52148 0.04337
9575.15820 0.042668
9576.79688 0.041968
9578.43555 0.04127
9580.07422 0.040574
9581.71289 0.039881
9583.35254 0.039138
9584.99219 0.038334
9586.63184 0.037532
9588.27246 0.036733
9589.91309 0.035936
9591.55371 0.035142
9593.19434 0.034302
9594.83594 0.033373
9596.47754 0.032447
9598.12012 0.031524
9599.76172 0.030604
9601.40430 0.02969
9603.04688 0.028758
9604.69043 0.027763
9606.33301 0.026772
9607.97656 0.025784
9609.62109 0.024799
9611.26465 0.023811
9612.90918 0.022842
9614.55371 0.021964
9616.19922 0.021089
9617.84473 0.020217
9619.49023 0.019349
9621.13574 0.018486
9622.78223 0.017637
9624.42871 0.016884
9626.07520 0.016133
9627.72168 0.015386
9629.36914 0.014641
9631.01660 0.013899
9632.66504 0.013161
9634.31152 0.012535
9635.96094 0.01191
9637.60938 0.011288
9639.25879 0.010668
9640.90820 0.010051
9642.55762 0.009436
9644.20703 0.008983
9645.85742 0.008541
9647.50781 0.0081
9649.15820 0.007662
9650.80957 0.007224
9652.45996 0.006789
9654.11230 0.006454
9655.76367 0.006132
9657.41602 0.005812
9659.06836 0.005493
9660.72070 0.005176
9662.37402 0.004859
9664.02637 0.004605
9665.68066 0.004363
9667.33398 0.004123
9668.98828 0.003883
9670.64258 0.003645
9672.29688 0.003407
9673.95215 0.003229
9675.60645 0.003069
9677.26270 0.002908
9678.91797 0.002749
9680.57422 0.00259
9682.23047 0.002431
9683.88672 0.002308
9685.54395 0.002198
9687.20117 0.002088
9688.85840 0.001979
9690.51660 0.00187
9692.17383 0.001761
9693.83203 0.001672
9695.49121 0.00159
9697.14941 0.001508
9698.80859 0.001427
9700.46875 0.001347
9702.12793 0.001266
9703.78809 0.001201
9705.44824 0.001143
9707.10840 0.001086
9708.76953 0.001028
9710.43066 0.000971
9712.09180 0.000914
9713.75391 0.000868
9715.41602 0.000829
9717.07812 0.00079
9718.74023 0.000751
9720.40332 0.000712
9722.06641 0.000673
9723.72852 0.000641
9725.39355 0.000613
9727.05762 0.000585
9728.72168 0.000558
9730.38672 0.00053
9732.05078 0.000502
9733.71582 0.000479
9735.38184 0.000457
9737.04688 0.000435
9738.71289 0.000414
10712.58398 0.0
