# %ECSV 0.9
# ---
# datatype:
# - {name: wavelength, unit: Angstrom, datatype: float32}
# - {name: response, datatype: float32}
# meta: !!omap
# - {band_name: F606W}
# - {group_name: WFC3_UVIS2}
wavelength response
4180.16260 0.0
4644.62500 0.000415
4645.41504 0.000437
4646.20605 0.000459
4646.99707 0.000481
4647.78809 0.000503
4648.57910 0.000525
4649.37012 0.000547
4650.16113 0.000569
4650.95312 0.000591
4651.74414 0.000611
4652.53613 0.00063
4653.32812 0.000649
4654.12012 0.000667
4654.91211 0.000686
4655.70410 0.000705
4656.49609 0.000724
4657.28906 0.000743
4658.08203 0.000761
4658.87402 0.00078
4659.66699 0.000799
4660.45996 0.000818
4661.25293 0.000837
4662.04688 0.000852
4662.83984 0.000867
4663.63379 0.000882
4664.42676 0.000897
4665.22119 0.000912
4666.01514 0.000927
4666.81006 0.000942
4667.60400 0.000957
4668.39795 0.000972
4669.19287 0.000987
4669.98682 0.001002
4670.78223 0.001017
4671.57715 0.001037
4672.37207 0.001067
4673.16699 0.001097
4673.96289 0.001126
4674.75781 0.001156
4675.55420 0.001186
4676.35010 0.001215
4677.14600 0.001245
4677.94092 0.001275
4678.73779 0.001305
4679.53418 0.001335
4680.33105 0.001364
4681.12695 0.001394
4681.92383 0.001446
4682.72119 0.001504
4683.51807 0.001562
4684.31494 0.00162
4685.11182 0.001678
4685.90918 0.001736
4686.70703 0.001794
4687.50391 0.001852
4688.30176 0.00191
4689.10010 0.001968
4689.89795 0.002027
4690.69678 0.002085
4691.49512 0.002146
4692.29297 0.002216
4693.09180 0.002286
4693.89111 0.002356
4694.68896 0.002427
4695.48877 0.002497
4696.28809 0.002567
4697.08691 0.002637
4697.88721 0.002708
4698.68604 0.002778
4699.48584 0.002848
4700.28613 0.002919
4701.08496 0.002989
4701.88623 0.00305
4702.68604 0.003107
4703.48584 0.003164
4704.28711 0.003221
4705.08691 0.003278
4705.88818 0.003336
4706.68896 0.003393
4707.49023 0.00345
4708.29199 0.003507
4709.09277 0.003565
4709.89404 0.003622
4710.69580 0.003679
4711.49805 0.003744
4712.29883 0.003835
4713.10205 0.003927
4713.90381 0.004018
4714.70605 0.004109
4715.50781 0.004201
4716.31104 0.004292
4717.11377 0.004383
4717.91699 0.004475
4718.71924 0.004566
4719.52197 0.004658
4720.32617 0.004749
4721.12891 0.004841
4721.93311 0.005058
4722.73584 0.005315
4723.54004 0.005572
4724.34424 0.00583
4725.14795 0.006087
4725.95215 0.006344
4726.75684 0.006601
4727.56104 0.006858
4728.36621 0.007116
4729.16992 0.007373
4729.97607 0.007631
4730.77979 0.007888
4731.58496 0.008294
4732.39111 0.009005
4733.19580 0.009717
4734.00195 0.01043
4734.80811 0.011142
4735.61279 0.011854
4736.41895 0.012567
4737.22607 0.01328
4738.03223 0.013992
4738.83789 0.014706
4739.64502 0.015419
4740.45117 0.016133
4741.25781 0.016848
4742.06494 0.018205
4742.87207 0.019622
4743.67920 0.02104
4744.48682 0.022458
4745.29395 0.023877
4746.10205 0.025296
4746.91016 0.026715
4747.71777 0.028136
4748.52490 0.029556
4749.33398 0.030978
4750.14209 0.032399
4750.95117 0.033819
4751.75879 0.035163
4752.56787 0.036439
4753.37695 0.037717
4754.18604 0.038993
4754.99512 0.040272
4755.80420 0.041549
4756.61377 0.042828
4757.42285 0.044106
4758.23291 0.045385
4759.04199 0.046664
4759.85303 0.047943
4760.66309 0.049223
4761.47314 0.050422
4762.28320 0.051239
4763.09424 0.052055
4763.90479 0.052873
4764.71484 0.05369
4765.52588 0.054507
4766.33691 0.055325
4767.14795 0.056142
4767.95996 0.05696
4768.77100 0.057778
4769.58301 0.058597
4770.39502 0.059415
4771.20703 0.060234
4772.01904 0.061957
4772.83105 0.06385
4773.64307 0.065742
4774.45605 0.067636
4775.26807 0.069529
4776.08105 0.071424
4776.89404 0.073319
4777.70703 0.075214
4778.52002 0.077109
4779.33301 0.079005
4780.14697 0.080902
4780.95996 0.082799
4781.77393 0.085978
4782.58789 0.090262
4783.40186 0.094546
4784.21582 0.098831
4785.02979 0.103119
4785.84521 0.107407
4786.65918 0.111695
4787.47412 0.115984
4788.28906 0.120276
4789.10400 0.124567
4789.91797 0.12886
4790.73389 0.133155
4791.54883 0.137884
4792.36523 0.143862
4793.18018 0.14984
4793.99609 0.155822
4794.81201 0.161804
4795.62793 0.167788
4796.44385 0.173774
4797.26123 0.179762
4798.07715 0.18575
4798.89404 0.191738
4799.70996 0.197731
4800.52686 0.203724
4801.34424 0.209711
4802.16211 0.21376
4802.97900 0.217808
4803.79590 0.221858
4804.61377 0.225907
4805.43213 0.229959
4806.25000 0.234012
4807.06689 0.238064
4807.88623 0.24212
4808.70410 0.246176
4809.52197 0.250232
4810.34082 0.254296
4811.16016 0.258373
4811.97900 0.26041
4812.79688 0.261854
4813.61719 0.2633
4814.43604 0.264745
4815.25488 0.266191
4816.07520 0.267637
4816.89502 0.269085
4817.71387 0.270532
4818.53418 0.27198
4819.35400 0.273429
4820.17480 0.274875
4820.99512 0.276305
4821.81494 0.277125
4822.63623 0.277485
4823.45703 0.277846
4824.27783 0.278207
4825.09912 0.278567
4825.91992 0.278928
4826.74219 0.279289
4827.56299 0.27965
4828.38477 0.280011
4829.20703 0.280373
4830.02783 0.280734
4830.85107 0.281093
4831.67188 0.281187
4832.49512 0.280871
4833.31689 0.280556
4834.14014 0.280241
4834.96289 0.279925
4835.78613 0.27961
4836.60791 0.279295
4837.43213 0.278979
4838.25488 0.278663
4839.07910 0.278347
4839.90186 0.278031
4840.72607 0.277715
4841.54980 0.277396
4842.37402 0.277064
4843.19824 0.276732
4844.02197 0.2764
4844.84717 0.276068
4845.67090 0.275736
4846.49609 0.275404
4847.32080 0.275072
4848.14600 0.27474
4848.97119 0.274407
4849.79590 0.274075
4850.62207 0.273742
4851.44678 0.27348
4852.27295 0.273776
4853.09912 0.274072
4853.92480 0.274369
4854.75098 0.274666
4855.57715 0.274962
4856.40283 0.275259
4857.22998 0.275556
4858.05713 0.275853
4858.88281 0.276149
4859.70996 0.276446
4860.53809 0.276743
4861.36523 0.277043
4862.19189 0.27757
4863.02002 0.278097
4863.84717 0.278624
4864.67480 0.279152
4865.50293 0.279679
4866.33105 0.280207
4867.16016 0.280735
4867.98779 0.281263
4868.81592 0.281791
4869.64502 0.282319
4870.47412 0.282847
4871.30322 0.283376
4872.13184 0.283271
4872.96094 0.283119
4873.79102 0.282967
4874.62012 0.282815
4875.45020 0.282663
4876.27881 0.282511
4877.10889 0.282359
4877.93896 0.282207
4878.77002 0.282055
4879.60010 0.281903
4880.43018 0.281751
4881.26123 0.281598
4882.09180 0.280898
4882.92285 0.28012
4883.75391 0.279342
4884.58496 0.278564
4885.41699 0.277786
4886.24805 0.277008
4887.08008 0.276229
4887.91113 0.275451
4888.74316 0.274672
4889.57520 0.273893
4890.40723 0.273123
4891.24023 0.272363
4892.07178 0.271723
4892.90479 0.271105
4893.73682 0.270487
4894.56982 0.269868
4895.40283 0.269249
4896.23584 0.26863
4897.06982 0.268011
4897.90283 0.267391
4898.73682 0.266772
4899.57080 0.266151
4900.40479 0.265522
4901.23877 0.264883
4902.07324 0.264727
4902.90723 0.26466
4903.74219 0.264593
4904.57617 0.264525
4905.41113 0.264458
4906.24609 0.264391
4907.08105 0.264324
4907.91602 0.264257
4908.75098 0.264189
4909.58691 0.264122
4910.42188 0.264055
4911.25781 0.263987
4912.09424 0.264291
4912.93018 0.264652
4913.76611 0.265013
4914.60303 0.265375
4915.43896 0.265737
4916.27490 0.266098
4917.11182 0.26646
4917.94922 0.266822
4918.78613 0.267184
4919.62305 0.267546
4920.45996 0.267908
4921.29785 0.26827
4922.13623 0.268751
4922.97314 0.269244
4923.81104 0.269736
4924.64893 0.270229
4925.48682 0.270722
4926.32617 0.271215
4927.16406 0.271709
4928.00195 0.272202
4928.84082 0.272695
4929.68018 0.273189
4930.51904 0.273682
4931.35791 0.274176
4932.19824 0.274693
4933.03711 0.27521
4933.87598 0.275727
4934.71582 0.276245
4935.55615 0.276763
4936.39600 0.27728
4937.23584 0.277798
4938.07715 0.278316
4938.91699 0.278834
4939.75781 0.279352
4940.59912 0.279871
4941.43896 0.280379
4942.27979 0.28076
4943.12207 0.281141
4943.96289 0.281522
4944.80420 0.281903
4945.64600 0.282285
4946.48779 0.282666
4947.33008 0.283048
4948.17090 0.283429
4949.01416 0.283811
4949.85596 0.284193
4950.69824 0.284574
4951.54102 0.284896
4952.38379 0.284959
4953.22705 0.285022
4954.06982 0.285086
4954.91309 0.285149
4955.75586 0.285212
4956.60010 0.285275
4957.44287 0.285338
4958.28711 0.285402
4959.13086 0.285465
4959.97510 0.285528
4960.81885 0.285591
4961.66309 0.285528
4962.50781 0.285207
4963.35303 0.284886
4964.19678 0.284564
4965.04199 0.284243
4965.88721 0.283922
4966.73193 0.2836
4967.57812 0.283279
4968.42285 0.282957
4969.26904 0.282636
4970.11377 0.282314
4970.95996 0.281992
4971.80615 0.281634
4972.65186 0.281239
4973.49902 0.280844
4974.34521 0.280448
4975.19189 0.280052
4976.03906 0.279657
4976.88477 0.279261
4977.73193 0.278865
4978.58008 0.278469
4979.42676 0.278073
4980.27393 0.277678
4981.12207 0.277281
4981.97021 0.277109
4982.81787 0.277039
4983.66602 0.276969
4984.51416 0.276899
4985.36182 0.27683
4986.21094 0.27676
4987.06006 0.27669
4987.90820 0.27662
4988.75684 0.27655
4989.60596 0.27648
4990.45605 0.276421
4991.30518 0.276371
4992.15381 0.276707
4993.00391 0.277087
4993.85400 0.277467
4994.70410 0.277847
4995.55420 0.278227
4996.40381 0.278607
4997.25391 0.278988
4998.10498 0.279369
4998.95605 0.279749
4999.80615 0.28013
5000.65723 0.28049
5001.50781 0.280851
5002.35986 0.28127
5003.21094 0.281689
5004.06201 0.282108
5004.91406 0.282527
5005.76611 0.282946
5006.61816 0.283366
5007.47021 0.283785
5008.32178 0.284204
5009.17480 0.284624
5010.02686 0.285043
5010.87988 0.285463
5011.73291 0.285729
5012.58594 0.285758
5013.43896 0.285786
5014.29199 0.285815
5015.14600 0.285843
5015.99902 0.285872
5016.85303 0.285901
5017.70703 0.285929
5018.56104 0.285958
5019.41504 0.285986
5020.26904 0.286015
5021.12402 0.286044
5021.97803 0.285689
5022.83301 0.28515
5023.68799 0.284611
5024.54297 0.284073
5025.39795 0.283534
5026.25293 0.282995
5027.10889 0.282456
5027.96387 0.281917
5028.81982 0.281378
5029.67578 0.280839
5030.53223 0.280296
5031.38818 0.279751
5032.24512 0.278975
5033.10107 0.278195
5033.95801 0.277415
5034.81396 0.276635
5035.67090 0.275855
5036.52783 0.275074
5037.38477 0.274294
5038.24316 0.273514
5039.10010 0.272733
5039.95801 0.271952
5040.81494 0.271172
5041.67383 0.270449
5042.53223 0.269854
5043.39014 0.26926
5044.24805 0.268666
5045.10693 0.268071
5045.96484 0.267477
5046.82422 0.266882
5047.68311 0.266287
5048.54199 0.265692
5049.40088 0.265097
5050.26123 0.264502
5051.12109 0.263907
5051.97998 0.263583
5052.83984 0.263395
5053.70020 0.263207
5054.56006 0.263019
5055.41992 0.262831
5056.28076 0.262643
5057.14111 0.262455
5058.00195 0.262267
5058.86279 0.262079
5059.72412 0.261891
5060.58496 0.261703
5061.44580 0.261531
5062.30811 0.261724
5063.16895 0.261917
5064.03076 0.262111
5064.89307 0.262304
5065.75488 0.262497
5066.61719 0.262691
5067.47900 0.262884
5068.34180 0.263078
5069.20508 0.263271
5070.06689 0.263465
5070.93018 0.263658
5071.79297 0.263929
5072.65576 0.264299
5073.52002 0.264669
5074.38281 0.265039
5075.24707 0.265409
5076.11084 0.265778
5076.97510 0.266148
5077.83887 0.266518
5078.70312 0.266889
5079.56689 0.267259
5080.43213 0.267629
5081.29590 0.267999
5082.16113 0.268354
5083.02588 0.268706
5083.89209 0.269058
5084.75684 0.26941
5085.62207 0.269762
5086.48779 0.270115
5087.35400 0.270467
5088.21924 0.270819
5089.08496 0.271172
5089.95117 0.271524
5090.81689 0.271877
5091.68408 0.272176
5092.55078 0.272354
5093.41699 0.272532
5094.28418 0.27271
5095.15088 0.272888
5096.01904 0.273066
5096.88623 0.273244
5097.75293 0.273423
5098.62109 0.273601
5099.48877 0.273779
5100.35596 0.273957
5101.22510 0.274135
5102.09277 0.274236
5102.96094 0.274313
5103.83008 0.274391
5104.69824 0.274469
5105.56689 0.274547
5106.43604 0.274624
5107.30518 0.274702
5108.17383 0.27478
5109.04395 0.274858
5109.91309 0.274935
5110.78320 0.275013
5111.65283 0.275097
5112.52295 0.275201
5113.39307 0.275304
5114.26318 0.275407
5115.13379 0.27551
5116.00391 0.275613
5116.87500 0.275716
5117.74609 0.275819
5118.61719 0.275923
5119.48779 0.276026
5120.35889 0.276129
5121.23096 0.276232
5122.10303 0.276445
5122.97412 0.27669
5123.84619 0.276935
5124.71777 0.277179
5125.58984 0.277424
5126.46289 0.277669
5127.33496 0.277914
5128.20801 0.278159
5129.08105 0.278404
5129.95410 0.278649
5130.82715 0.278913
5131.70020 0.27919
5132.57324 0.279493
5133.44678 0.279795
5134.31982 0.280097
5135.19385 0.2804
5136.06787 0.280703
5136.94189 0.281005
5137.81689 0.281308
5138.69092 0.281611
5139.56592 0.281914
5140.43994 0.282207
5141.31494 0.282489
5142.18994 0.282603
5143.06494 0.282692
5143.94092 0.28278
5144.81592 0.282869
5145.69189 0.282957
5146.56787 0.283046
5147.44385 0.283135
5148.31982 0.283223
5149.19580 0.283312
5150.07178 0.283401
5150.94922 0.283489
5151.82617 0.283405
5152.70312 0.283105
5153.58008 0.282805
5154.45703 0.282506
5155.33398 0.282206
5156.21094 0.281906
5157.08887 0.281606
5157.96582 0.281307
5158.84424 0.281007
5159.72314 0.280707
5160.60107 0.280407
5161.47900 0.280093
5162.35693 0.279501
5163.23584 0.27891
5164.11523 0.278318
5164.99414 0.277726
5165.87305 0.277134
5166.75195 0.276542
5167.63086 0.27595
5168.51123 0.275358
5169.39111 0.274765
5170.27100 0.274173
5171.14990 0.273581
5172.02979 0.273024
5172.91113 0.272485
5173.79102 0.271946
5174.67090 0.271407
5175.55176 0.270867
5176.43311 0.270328
5177.31396 0.269788
5178.19482 0.269249
5179.07715 0.268709
5179.95801 0.26817
5180.83984 0.26763
5181.72119 0.2672
5182.60400 0.267008
5183.48486 0.266815
5184.36816 0.266623
5185.25000 0.26643
5186.13184 0.266238
5187.01514 0.266045
5187.89795 0.265853
5188.78076 0.26566
5189.66406 0.265468
5190.54688 0.265275
5191.43115 0.265082
5192.31396 0.265378
5193.19824 0.265682
5194.08203 0.265987
5194.96582 0.266291
5195.85010 0.266595
5196.73389 0.266899
5197.61914 0.267204
5198.50293 0.267508
5199.38818 0.267813
5200.27295 0.268117
5201.15820 0.268422
5202.04297 0.268958
5202.92920 0.269606
5203.81396 0.270255
5204.70020 0.270904
5205.58594 0.271553
5206.47217 0.272202
5207.35791 0.272852
5208.24414 0.273501
5209.12988 0.27415
5210.01709 0.2748
5210.90381 0.275449
5211.79102 0.276108
5212.67822 0.27678
5213.56494 0.277453
5214.45215 0.278126
5215.33984 0.278799
5216.22803 0.279473
5217.11523 0.280146
5218.00293 0.280819
5218.89111 0.281492
5219.77881 0.282166
5220.66797 0.28284
5221.55615 0.28348
5222.44482 0.283865
5223.33398 0.284251
5224.22314 0.284637
5225.11182 0.285023
5226.00098 0.285409
5226.89111 0.285794
5227.77979 0.28618
5228.66992 0.286567
5229.56006 0.286953
5230.45020 0.28734
5231.33984 0.287727
5232.22998 0.287794
5233.12109 0.287813
5234.01221 0.287833
5234.90186 0.287852
5235.79297 0.287871
5236.68506 0.28789
5237.57617 0.28791
5238.46680 0.287929
5239.35889 0.287948
5240.25000 0.287967
5241.14307 0.287986
5242.03516 0.28786
5242.92676 0.287653
5243.81885 0.287446
5244.71094 0.287239
5245.60400 0.287032
5246.49707 0.286825
5247.39014 0.286618
5248.28320 0.286411
5249.17578 0.286203
5250.06885 0.285996
5250.96289 0.285789
5251.85693 0.285569
5252.75000 0.285334
5253.64502 0.285098
5254.53906 0.284863
5255.43311 0.284627
5256.32812 0.284391
5257.22217 0.284156
5258.11719 0.28392
5259.01221 0.283684
5259.90723 0.283448
5260.80176 0.283213
5261.69678 0.282996
5262.59277 0.282834
5263.48877 0.282671
5264.38379 0.282509
5265.27979 0.282347
5266.17578 0.282184
5267.07324 0.282022
5267.96924 0.281859
5268.86621 0.281697
5269.76318 0.281535
5270.66016 0.281372
5271.55713 0.281216
5272.45410 0.281116
5273.35107 0.281016
5274.24902 0.280916
5275.14600 0.280816
5276.04395 0.280716
5276.94189 0.280616
5277.83984 0.280516
5278.73779 0.280416
5279.63721 0.280316
5280.53516 0.280216
5281.43408 0.280116
5282.33301 0.280021
5283.23193 0.279926
5284.13086 0.279831
5285.02979 0.279737
5285.93018 0.279642
5286.83008 0.279547
5287.72900 0.279452
5288.62891 0.279357
5289.52881 0.279263
5290.43018 0.279168
5291.33008 0.279073
5292.22998 0.278961
5293.13086 0.278846
5294.03223 0.27873
5294.93311 0.278615
5295.83398 0.2785
5296.73584 0.278384
5297.63721 0.278269
5298.53906 0.278153
5299.44092 0.278038
5300.34277 0.277923
5301.24512 0.277807
5302.14697 0.277715
5303.04883 0.27763
5303.95215 0.277546
5304.85400 0.277461
5305.75781 0.277377
5306.66113 0.277292
5307.56396 0.277207
5308.46680 0.277123
5309.37109 0.277038
5310.27393 0.276953
5311.17822 0.276869
5312.08203 0.276841
5312.98584 0.276843
5313.89014 0.276844
5314.79492 0.276845
5315.69922 0.276847
5316.60400 0.276848
5317.50879 0.276849
5318.41406 0.276851
5319.31885 0.276852
5320.22412 0.276853
5321.12988 0.276855
5322.03613 0.276946
5322.94092 0.277094
5323.84717 0.277243
5324.75293 0.277391
5325.66016 0.277539
5326.56592 0.277688
5327.47314 0.277836
5328.37891 0.277985
5329.28613 0.278133
5330.19287 0.278282
5331.10010 0.27843
5332.00781 0.278634
5332.91504 0.278879
5333.82324 0.279124
5334.72998 0.279369
5335.63916 0.279614
5336.54590 0.279858
5337.45508 0.280103
5338.36279 0.280348
5339.27197 0.280593
5340.18115 0.280838
5341.08887 0.281083
5341.99902 0.281353
5342.90820 0.281643
5343.81689 0.281932
5344.72705 0.282221
5345.63623 0.282511
5346.54590 0.2828
5347.45605 0.28309
5348.36621 0.283379
5349.27588 0.283669
5350.18701 0.283959
5351.09717 0.284248
5352.00781 0.284514
5352.91895 0.284764
5353.83008 0.285013
5354.74121 0.285262
5355.65186 0.285511
5356.56396 0.285761
5357.47607 0.28601
5358.38818 0.28626
5359.29883 0.286509
5360.21094 0.286758
5361.12402 0.287008
5362.03613 0.287193
5362.94922 0.287336
5363.86182 0.287479
5364.77393 0.287622
5365.68799 0.287765
5366.60107 0.287908
5367.51416 0.288051
5368.42822 0.288194
5369.34082 0.288337
5370.25488 0.28848
5371.16895 0.288623
5372.08301 0.288693
5372.99805 0.288723
5373.91211 0.288753
5374.82715 0.288783
5375.74219 0.288813
5376.65723 0.288843
5377.57178 0.288873
5378.48682 0.288903
5379.40186 0.288933
5380.31787 0.288963
5381.23291 0.288994
5382.14893 0.28894
5383.06494 0.288852
5383.98096 0.288764
5384.89795 0.288676
5385.81396 0.288588
5386.73096 0.2885
5387.64795 0.288413
5388.56494 0.288325
5389.48193 0.288237
5390.39893 0.288149
5391.31689 0.288061
5392.23389 0.287918
5393.15186 0.287762
5394.06982 0.287606
5394.98779 0.28745
5395.90576 0.287294
5396.82520 0.287138
5397.74316 0.286982
5398.66211 0.286825
5399.58105 0.286669
5400.50000 0.286513
5401.41797 0.286357
5402.33789 0.28616
5403.25684 0.285959
5404.17676 0.285759
5405.09717 0.285559
5406.01709 0.285358
5406.93701 0.285158
5407.85693 0.284957
5408.77686 0.284756
5409.69824 0.284556
5410.61914 0.284355
5411.54004 0.284153
5412.45996 0.283919
5413.38184 0.283684
5414.30322 0.28345
5415.22510 0.283215
5416.14600 0.282981
5417.06787 0.282746
5417.99023 0.282511
5418.91211 0.282277
5419.83398 0.282042
5420.75684 0.281807
5421.67920 0.281573
5422.60205 0.281341
5423.52490 0.281108
5424.44824 0.280876
5425.37207 0.280643
5426.29492 0.28041
5427.21777 0.280178
5428.14209 0.279945
5429.06592 0.279713
5429.99023 0.27948
5430.91406 0.279247
5431.83789 0.279029
5432.76318 0.278838
5433.68701 0.278647
5434.61182 0.278457
5435.53711 0.278266
5436.46191 0.278075
5437.38818 0.277884
5438.31299 0.277693
5439.23877 0.277502
5440.16406 0.277311
5441.08984 0.27712
5442.01611 0.276966
5442.94189 0.276843
5443.86914 0.276719
5444.79492 0.276596
5445.72217 0.276472
5446.64893 0.276349
5447.57617 0.276226
5448.50293 0.276102
5449.43018 0.275979
5450.35791 0.275855
5451.28613 0.275731
5452.21289 0.275691
5453.14111 0.275678
5454.06885 0.275665
5454.99805 0.275652
5455.92578 0.27564
5456.85400 0.275627
5457.78320 0.275614
5458.71191 0.275601
5459.64111 0.275588
5460.56982 0.275575
5461.50000 0.275562
5462.42920 0.275673
5463.35889 0.275786
5464.28906 0.275899
5465.21924 0.276013
5466.14893 0.276126
5467.07910 0.276239
5468.00977 0.276352
5468.93994 0.276466
5469.87109 0.276579
5470.80176 0.276692
5471.73291 0.276832
5472.66504 0.277064
5473.59619 0.277296
5474.52686 0.277528
5475.45898 0.27776
5476.39111 0.277991
5477.32324 0.278223
5478.25488 0.278455
5479.18799 0.278687
5480.12109 0.278919
5481.05322 0.279151
5481.98584 0.279414
5482.91895 0.279709
5483.85205 0.280004
5484.78613 0.280299
5485.71924 0.280594
5486.65186 0.280889
5487.58594 0.281185
5488.52100 0.28148
5489.45508 0.281775
5490.38916 0.28207
5491.32324 0.282365
5492.25781 0.282657
5493.19189 0.282946
5494.12695 0.283237
5495.06299 0.283527
5495.99805 0.283817
5496.93311 0.284107
5497.86914 0.284397
5498.80518 0.284688
5499.74023 0.284978
5500.67578 0.285268
5501.61279 0.28555
5502.54883 0.285754
5503.48486 0.285959
5504.42188 0.286163
5505.35889 0.286368
5506.29590 0.286573
5507.23291 0.286778
5508.16992 0.286982
5509.10791 0.287187
5510.04492 0.287392
5510.98291 0.287597
5511.92090 0.287738
5512.85889 0.287791
5513.79688 0.287843
5514.73584 0.287895
5515.67480 0.287948
5516.61279 0.288
5517.55176 0.288053
5518.49121 0.288105
5519.43115 0.288158
5520.37012 0.28821
5521.31006 0.288262
5522.24902 0.288193
5523.18896 0.288085
5524.12891 0.287977
5525.06885 0.28787
5526.00977 0.287762
5526.95020 0.287654
5527.89111 0.287546
5528.83203 0.287438
5529.77197 0.28733
5530.71387 0.287222
5531.65479 0.287097
5532.59717 0.286855
5533.53809 0.286612
5534.47998 0.28637
5535.42188 0.286127
5536.36377 0.285885
5537.30615 0.285642
5538.24902 0.285399
5539.19092 0.285156
5540.13379 0.284914
5541.07715 0.284671
5542.02002 0.284398
5542.96289 0.284096
5543.90723 0.283795
5544.85010 0.283493
5545.79395 0.283191
5546.73779 0.28289
5547.68213 0.282588
5548.62598 0.282286
5549.56982 0.281984
5550.51514 0.281682
5551.45898 0.28138
5552.40381 0.281063
5553.34912 0.280745
5554.29395 0.280427
5555.24023 0.28011
5556.18506 0.279791
5557.13086 0.279473
5558.07715 0.279155
5559.02295 0.278837
5559.96924 0.278519
5560.91504 0.2782
5561.86084 0.277896
5562.80811 0.277618
5563.75488 0.27734
5564.70215 0.277063
5565.64893 0.276785
5566.59619 0.276508
5567.54297 0.27623
5568.49121 0.275952
5569.43896 0.275674
5570.38721 0.275388
5571.33496 0.275087
5572.28320 0.274852
5573.23096 0.274635
5574.18018 0.274418
5575.12891 0.274201
5576.07812 0.273985
5577.02686 0.273768
5577.97607 0.273551
5578.92480 0.273334
5579.87500 0.273117
5580.82422 0.27292
5581.77393 0.27275
5582.72412 0.272663
5583.67383 0.272575
5584.62500 0.272487
5585.57520 0.2724
5586.52588 0.272312
5587.47705 0.272225
5588.42822 0.272137
5589.37891 0.27205
5590.33008 0.271962
5591.28076 0.271875
5592.23291 0.271884
5593.18506 0.271931
5594.13721 0.271979
5595.08887 0.272027
5596.04102 0.272075
5596.99414 0.272122
5597.94580 0.27217
5598.89893 0.272218
5599.85205 0.272266
5600.80518 0.272313
5601.75781 0.272389
5602.71094 0.272569
5603.66504 0.272749
5604.61914 0.27293
5605.57324 0.27311
5606.52686 0.27329
5607.48096 0.273471
5608.43506 0.273651
5609.39014 0.273831
5610.34521 0.274011
5611.29883 0.274192
5612.25391 0.274448
5613.20898 0.274733
5614.16504 0.275018
5615.12109 0.275303
5616.07617 0.275587
5617.03223 0.275872
5617.98779 0.276157
5618.94385 0.276442
5619.89990 0.276727
5620.85693 0.277012
5621.81299 0.277309
5622.77100 0.277638
5623.72803 0.277968
5624.68506 0.278297
5625.64209 0.278627
5626.59912 0.278957
5627.55713 0.279287
5628.51514 0.279617
5629.47314 0.279946
5630.43115 0.280273
5631.38916 0.280596
5632.34814 0.280894
5633.30615 0.281187
5634.26514 0.28148
5635.22412 0.281773
5636.18311 0.282066
5637.14209 0.282359
5638.10205 0.282652
5639.06104 0.282945
5640.02100 0.283238
5640.98096 0.283531
5641.94092 0.283778
5642.90088 0.283951
5643.86084 0.284125
5644.82178 0.284298
5645.78320 0.284471
5646.74414 0.284645
5647.70508 0.284818
5648.66602 0.284992
5649.62695 0.285166
5650.58887 0.285339
5651.54980 0.285513
5652.51221 0.285524
5653.47510 0.285533
5654.43701 0.285542
5655.39893 0.285551
5656.36084 0.28556
5657.32422 0.285568
5658.28711 0.285577
5659.25000 0.285586
5660.21289 0.285595
5661.17676 0.285603
5662.14014 0.285527
5663.10400 0.285391
5664.06689 0.285256
5665.03223 0.28512
5665.99609 0.284984
5666.95996 0.284849
5667.92480 0.284713
5668.88916 0.284577
5669.85400 0.284441
5670.81885 0.284305
5671.78418 0.284146
5672.75000 0.283902
5673.71484 0.283658
5674.68115 0.283414
5675.64600 0.28317
5676.61182 0.282926
5677.57910 0.282682
5678.54492 0.282438
5679.51123 0.282194
5680.47803 0.28195
5681.44482 0.281706
5682.41211 0.281443
5683.37891 0.281177
5684.34619 0.280911
5685.31299 0.280646
5686.28076 0.28038
5687.24902 0.280114
5688.21680 0.279848
5689.18506 0.279583
5690.15283 0.279317
5691.12207 0.279051
5692.08984 0.278804
5693.05908 0.278573
5694.02783 0.278343
5694.99707 0.278113
5695.96582 0.277882
5696.93604 0.277652
5697.90479 0.277422
5698.87500 0.277191
5699.84521 0.276961
5700.81494 0.27673
5701.78613 0.276514
5702.75586 0.27635
5703.72705 0.276186
5704.69678 0.276022
5705.66797 0.275858
5706.63916 0.275694
5707.60986 0.27553
5708.58203 0.275366
5709.55420 0.275202
5710.52490 0.275038
5711.49707 0.274874
5712.46924 0.274765
5713.44092 0.274662
5714.41406 0.274558
5715.38623 0.274455
5716.35889 0.274352
5717.33203 0.274248
5718.30518 0.274145
5719.27783 0.274041
5720.25195 0.273932
5721.22607 0.273806
5722.19922 0.273702
5723.17285 0.273612
5724.14697 0.273522
5725.12109 0.273431
5726.09619 0.273341
5727.06982 0.273251
5728.04492 0.27316
5729.02002 0.27307
5729.99512 0.27298
5730.97021 0.272912
5731.94482 0.272855
5732.92090 0.272818
5733.89697 0.272782
5734.87305 0.272745
5735.84912 0.272708
5736.82520 0.272671
5737.80078 0.272634
5738.77783 0.272597
5739.75391 0.27256
5740.73096 0.272523
5741.70801 0.272489
5742.68604 0.27248
5743.66309 0.272471
5744.64111 0.272462
5745.61914 0.272453
5746.59619 0.272444
5747.57422 0.272435
5748.55322 0.272426
5749.53076 0.272417
5750.50879 0.272408
5751.48779 0.272399
5752.46680 0.272427
5753.44580 0.272461
5754.42480 0.272493
5755.40479 0.272527
5756.38379 0.27256
5757.36377 0.272593
5758.34424 0.272626
5759.32422 0.272659
5760.30420 0.272692
5761.28516 0.272725
5762.26514 0.272804
5763.24609 0.272906
5764.22705 0.273007
5765.20801 0.273108
5766.18896 0.27321
5767.16992 0.273311
5768.15186 0.273413
5769.13379 0.273514
5770.11523 0.273615
5771.09814 0.273717
5772.08008 0.273861
5773.06201 0.27405
5774.04395 0.274239
5775.02686 0.274427
5776.00977 0.274616
5776.99316 0.274805
5777.97705 0.274994
5778.95996 0.275183
5779.94287 0.275372
5780.92676 0.275561
5781.91113 0.275771
5782.89502 0.276027
5783.87891 0.276284
5784.86377 0.27654
5785.84814 0.276796
5786.83301 0.277052
5787.81787 0.277309
5788.80322 0.277565
5789.78809 0.277822
5790.77295 0.278078
5791.75879 0.278336
5792.74512 0.278603
5793.73096 0.27887
5794.71680 0.279137
5795.70312 0.279403
5796.68896 0.27967
5797.67578 0.279937
5798.66309 0.280204
5799.64990 0.280471
5800.63721 0.280738
5801.62402 0.281004
5802.61084 0.281204
5803.59912 0.281405
5804.58691 0.281605
5805.57520 0.281805
5806.56299 0.282006
5807.55078 0.282206
5808.54004 0.282407
5809.52783 0.282607
5810.51709 0.282807
5811.50586 0.283008
5812.49512 0.283078
5813.48389 0.283134
5814.47412 0.283189
5815.46289 0.283244
5816.45312 0.283299
5817.44287 0.283355
5818.43311 0.28341
5819.42285 0.283465
5820.41406 0.28351
5821.40381 0.283542
5822.39502 0.283424
5823.38623 0.283267
5824.37695 0.283109
5825.36914 0.282952
5826.35986 0.282795
5827.35205 0.282637
5828.34277 0.28248
5829.33496 0.282322
5830.32812 0.282174
5831.31982 0.282045
5832.31201 0.281797
5833.30518 0.281499
5834.29785 0.2812
5835.29102 0.280902
5836.28418 0.280603
5837.27686 0.280305
5838.27100 0.280006
5839.26416 0.279707
5840.25781 0.279409
5841.25195 0.27911
5842.24609 0.278756
5843.24121 0.27837
5844.23486 0.277984
5845.22900 0.277598
5846.22510 0.277212
5847.22021 0.276826
5848.21484 0.27644
5849.20996 0.276054
5850.20605 0.275667
5851.20117 0.275281
5852.19678 0.274904
5853.19287 0.274533
5854.18896 0.274162
5855.18604 0.273791
5856.18213 0.27342
5857.17920 0.273049
5858.17578 0.272678
5859.17285 0.272307
5860.16992 0.271936
5861.16699 0.271565
5862.16504 0.271243
5863.16309 0.270963
5864.16113 0.270682
5865.15918 0.270402
5866.15723 0.270122
5867.15479 0.269841
5868.15381 0.26956
5869.15186 0.26928
5870.15088 0.269
5871.14990 0.268719
5872.14990 0.268512
5873.14893 0.268371
5874.14893 0.26823
5875.14795 0.26809
5876.14795 0.267949
5877.14795 0.267809
5878.14893 0.267668
5879.14893 0.267527
5880.14990 0.267387
5881.14990 0.267246
5882.15088 0.267183
5883.15283 0.267191
5884.15381 0.267199
5885.15479 0.267207
5886.15723 0.267216
5887.15918 0.267224
5888.16113 0.267232
5889.16309 0.26724
5890.16602 0.267248
5891.16797 0.267256
5892.16992 0.267317
5893.17285 0.267424
5894.17578 0.26753
5895.17920 0.267637
5896.18311 0.267743
5897.18604 0.26785
5898.18994 0.267956
5899.19385 0.268063
5900.19824 0.268165
5901.20215 0.268249
5902.20703 0.268372
5903.21094 0.268524
5904.21582 0.268677
5905.22119 0.26883
5906.22607 0.268983
5907.23096 0.269136
5908.23584 0.269289
5909.24219 0.269441
5910.24805 0.2696
5911.25293 0.269776
5912.25879 0.269964
5913.26611 0.27016
5914.27197 0.270356
5915.27881 0.270552
5916.28516 0.270747
5917.29199 0.270943
5918.29883 0.271139
5919.30713 0.271335
5920.31396 0.271531
5921.32178 0.271727
5922.33008 0.271912
5923.33691 0.272091
5924.34619 0.27227
5925.35400 0.272449
5926.36182 0.272628
5927.37109 0.272808
5928.37988 0.272987
5929.38916 0.273166
5930.39795 0.273346
5931.40723 0.273525
5932.41699 0.27369
5933.42578 0.273851
5934.43701 0.274013
5935.44580 0.274174
5936.45703 0.274335
5937.46680 0.274496
5938.47803 0.274657
5939.48779 0.274819
5940.49902 0.27498
5941.50977 0.275141
5942.52100 0.275287
5943.53320 0.275431
5944.54395 0.275575
5945.55615 0.275719
5946.56787 0.275863
5947.58008 0.276006
5948.59180 0.27615
5949.60400 0.276294
5950.61719 0.276438
5951.62988 0.276582
5952.64307 0.276716
5953.65576 0.27685
5954.66895 0.276984
5955.68311 0.277118
5956.69580 0.277252
5957.70996 0.277386
5958.72412 0.27752
5959.73779 0.277654
5960.75293 0.277788
5961.76709 0.277922
5962.78223 0.278056
5963.79688 0.278189
5964.81201 0.278323
5965.82715 0.278456
5966.84180 0.278589
5967.85791 0.278723
5968.87402 0.278856
5969.89014 0.27899
5970.90479 0.279102
5971.92188 0.279205
5972.93799 0.27929
5973.95508 0.279375
5974.97119 0.279461
5975.98779 0.279546
5977.00488 0.279631
5978.02197 0.279716
5979.04004 0.279801
5980.05811 0.279888
5981.07617 0.279997
5982.09277 0.280081
5983.11182 0.280132
5984.12988 0.280183
5985.14795 0.280233
5986.16699 0.280284
5987.18604 0.280334
5988.20508 0.280385
5989.22412 0.280435
5990.24316 0.280486
5991.26318 0.280536
5992.28320 0.280536
5993.30176 0.280502
5994.32178 0.280469
5995.34277 0.280436
5996.36279 0.280402
5997.38379 0.280369
5998.40381 0.280336
5999.42480 0.280302
6000.44580 0.280281
6001.46777 0.280276
6002.48877 0.280186
6003.51123 0.280076
6004.53223 0.279965
6005.55420 0.279855
6006.57715 0.279745
6007.59912 0.279634
6008.62109 0.279524
6009.64404 0.279413
6010.66699 0.279303
6011.68896 0.27919
6012.71289 0.27897
6013.73584 0.278749
6014.75977 0.278529
6015.78320 0.278309
6016.80713 0.278088
6017.83105 0.277867
6018.85498 0.277647
6019.87988 0.277426
6020.90381 0.277205
6021.92920 0.276967
6022.95410 0.276676
6023.97900 0.276385
6025.00391 0.276094
6026.02979 0.275802
6027.05615 0.275511
6028.08105 0.27522
6029.10693 0.274928
6030.13281 0.274633
6031.16016 0.274315
6032.18604 0.273996
6033.21289 0.273679
6034.24023 0.273361
6035.26709 0.273043
6036.29395 0.272726
6037.32080 0.272408
6038.34912 0.27209
6039.37598 0.271772
6040.40381 0.271464
6041.43213 0.27117
6042.45996 0.270927
6043.48877 0.270701
6044.51807 0.270474
6045.54590 0.270248
6046.57520 0.270021
6047.60400 0.269795
6048.63379 0.269568
6049.66309 0.269341
6050.69287 0.269114
6051.72314 0.268893
6052.75195 0.268777
6053.78320 0.268661
6054.81299 0.268546
6055.84277 0.26843
6056.87402 0.268314
6057.90479 0.268198
6058.93604 0.268082
6059.96680 0.267966
6060.99902 0.267851
6062.02979 0.267785
6063.06201 0.267816
6064.09424 0.267847
6065.12598 0.267878
6066.15820 0.267909
6067.18994 0.26794
6068.22314 0.267971
6069.25586 0.268002
6070.28906 0.268033
6071.32178 0.268064
6072.35498 0.268176
6073.38916 0.26833
6074.42188 0.268484
6075.45703 0.268639
6076.49023 0.268794
6077.52393 0.268948
6078.55908 0.269103
6079.59277 0.269257
6080.62793 0.269412
6081.66309 0.269567
6082.69824 0.269791
6083.73291 0.270016
6084.76904 0.270242
6085.80518 0.270468
6086.83984 0.270693
6087.87598 0.270919
6088.91309 0.271145
6089.94922 0.271371
6090.98486 0.271574
6092.02197 0.271775
6093.05908 0.271974
6094.09619 0.272174
6095.13281 0.272373
6096.16992 0.272572
6097.20801 0.272772
6098.24609 0.272971
6099.28320 0.27317
6100.32080 0.273377
6101.35986 0.273601
6102.39795 0.273782
6103.43701 0.273943
6104.47607 0.274105
6105.51514 0.274267
6106.55420 0.274428
6107.59277 0.27459
6108.63184 0.274752
6109.67188 0.274913
6110.71191 0.275075
6111.75195 0.275232
6112.79199 0.275307
6113.83301 0.275383
6114.87305 0.275458
6115.91406 0.275533
6116.95508 0.275609
6117.99609 0.275684
6119.03711 0.27576
6120.07910 0.275835
6121.12012 0.275911
6122.16211 0.27596
6123.20410 0.275978
6124.24609 0.275995
6125.28809 0.276013
6126.33105 0.276031
6127.37402 0.276048
6128.41699 0.276066
6129.45898 0.276083
6130.50195 0.276101
6131.54590 0.276118
6132.58887 0.276121
6133.63281 0.276121
6134.67676 0.27612
6135.72119 0.27612
6136.76611 0.27612
6137.81006 0.27612
6138.85400 0.27612
6139.89893 0.27612
6140.94385 0.27612
6141.99023 0.276135
6143.03516 0.27619
6144.08105 0.276244
6145.12598 0.276298
6146.17188 0.276353
6147.21777 0.276407
6148.26416 0.276461
6149.31104 0.276516
6150.35693 0.276562
6151.40381 0.276591
6152.45117 0.276673
6153.49805 0.276776
6154.54492 0.276879
6155.59277 0.276982
6156.64111 0.277085
6157.68799 0.277187
6158.73584 0.27729
6159.78516 0.277393
6160.83301 0.277516
6161.88086 0.277653
6162.93018 0.277837
6163.97900 0.278021
6165.02783 0.278206
6166.07812 0.27839
6167.12695 0.278575
6168.17676 0.278759
6169.22705 0.278944
6170.27588 0.279128
6171.32715 0.279313
6172.37695 0.279499
6173.42676 0.279687
6174.47803 0.279874
6175.52881 0.280062
6176.58008 0.280249
6177.63086 0.280437
6178.68311 0.280625
6179.73389 0.280812
6180.78613 0.281
6181.83789 0.281175
6182.89014 0.281256
6183.94189 0.281338
6184.99512 0.281419
6186.04688 0.2815
6187.10107 0.281582
6188.15283 0.281663
6189.20703 0.281745
6190.25977 0.281826
6191.31299 0.281907
6192.36719 0.281886
6193.42090 0.2818
6194.47510 0.281715
6195.52979 0.28163
6196.58398 0.281545
6197.63916 0.28146
6198.69287 0.281374
6199.74902 0.281289
6200.80420 0.281185
6201.85889 0.281046
6202.91504 0.28073
6203.97021 0.280415
6205.02588 0.280099
6206.08203 0.279783
6207.13916 0.279467
6208.19482 0.279151
6209.25098 0.278835
6210.30811 0.278527
6211.36523 0.278236
6212.42188 0.277847
6213.47900 0.27741
6214.53711 0.276972
6215.59521 0.276534
6216.65283 0.276095
6217.71094 0.275657
6218.76904 0.275219
6219.82812 0.27478
6220.88623 0.274342
6221.94482 0.273894
6223.00391 0.273416
6224.06299 0.272937
6225.12207 0.272458
6226.18213 0.271979
6227.24121 0.271499
6228.30078 0.27102
6229.36084 0.27054
6230.42090 0.270061
6231.48193 0.269583
6232.54199 0.269173
6233.60303 0.268782
6234.66406 0.268391
6235.72510 0.268
6236.78711 0.267609
6237.84814 0.267218
6238.91016 0.266826
6239.97217 0.266435
6241.03418 0.26602
6242.09619 0.265656
6243.15820 0.26539
6244.22119 0.265124
6245.28320 0.264858
6246.34619 0.264591
6247.41016 0.264325
6248.47314 0.264059
6249.53613 0.263793
6250.60010 0.26354
6251.66406 0.263298
6252.72803 0.26326
6253.79199 0.263236
6254.85596 0.263213
6255.92090 0.263189
6256.98486 0.263165
6258.04980 0.263141
6259.11621 0.263117
6260.18115 0.263093
6261.24609 0.263069
6262.31201 0.263165
6263.37793 0.263361
6264.44385 0.263557
6265.50977 0.263753
6266.57617 0.263949
6267.64307 0.264145
6268.70898 0.264341
6269.77588 0.264537
6270.84424 0.264733
6271.91113 0.264956
6272.97900 0.26531
6274.04590 0.265665
6275.11377 0.266019
6276.18213 0.266374
6277.25000 0.266729
6278.31787 0.267083
6279.38721 0.267438
6280.45605 0.267793
6281.52393 0.268148
6282.59424 0.268573
6283.66309 0.269015
6284.73193 0.269457
6285.80176 0.269899
6286.87207 0.270342
6287.94189 0.270784
6289.01221 0.271227
6290.08301 0.271668
6291.15283 0.272085
6292.22412 0.272496
6293.29395 0.272898
6294.36621 0.273299
6295.43701 0.273701
6296.50781 0.274103
6297.58008 0.274504
6298.65186 0.274906
6299.72412 0.275308
6300.79590 0.275728
6301.86816 0.276147
6302.94092 0.276501
6304.01416 0.276856
6305.08594 0.277211
6306.16016 0.277566
6307.23291 0.277921
6308.30713 0.278276
6309.37988 0.278631
6310.45410 0.278987
6311.52783 0.279342
6312.60205 0.279587
6313.67578 0.279805
6314.75098 0.280023
6315.82617 0.280241
6316.90088 0.280459
6317.97607 0.280677
6319.05078 0.280895
6320.12598 0.281114
6321.20215 0.281332
6322.27783 0.281492
6323.35400 0.281593
6324.43018 0.281694
6325.50684 0.281795
6326.58301 0.281896
6327.66016 0.281997
6328.73682 0.282098
6329.81396 0.282199
6330.89209 0.282278
6331.96924 0.282335
6333.04590 0.28232
6334.12500 0.282305
6335.20312 0.28229
6336.28076 0.282275
6337.35889 0.28226
6338.43701 0.282245
6339.51709 0.28223
6340.59619 0.282229
6341.67480 0.28224
6342.75391 0.282235
6343.83301 0.28223
6344.91309 0.282224
6345.99316 0.282218
6347.07324 0.282212
6348.15283 0.282207
6349.23389 0.282201
6350.31396 0.282195
6351.39502 0.282189
6352.47607 0.282202
6353.55713 0.282224
6354.63916 0.282245
6355.72021 0.282267
6356.80176 0.282289
6357.88379 0.282311
6358.96582 0.282333
6360.04785 0.282355
6361.13086 0.282377
6362.21289 0.28241
6363.29590 0.282459
6364.37891 0.282507
6365.46191 0.282556
6366.54590 0.282604
6367.62891 0.282653
6368.71289 0.282702
6369.79688 0.28275
6370.88086 0.282778
6371.96484 0.282802
6373.04980 0.282838
6374.13379 0.282874
6375.21924 0.28291
6376.30420 0.282946
6377.39014 0.282982
6378.47510 0.283018
6379.56104 0.283054
6380.64600 0.283105
6381.73193 0.283167
6382.81787 0.283207
6383.90479 0.283247
6384.99121 0.283286
6386.07812 0.283325
6387.16504 0.283365
6388.25195 0.283405
6389.33887 0.283444
6390.42676 0.283483
6391.51416 0.283523
6392.60205 0.283479
6393.68994 0.283411
6394.77783 0.283342
6395.86719 0.283273
6396.95508 0.283205
6398.04395 0.283136
6399.13281 0.283067
6400.22217 0.282999
6401.31201 0.28293
6402.40088 0.282787
6403.49023 0.28259
6404.58008 0.282393
6405.66992 0.282196
6406.76123 0.281999
6407.85107 0.281802
6408.94092 0.281605
6410.03223 0.281407
6411.12305 0.281184
6412.21387 0.28091
6413.30615 0.280564
6414.39697 0.280218
6415.48877 0.279872
6416.58105 0.279525
6417.67285 0.279179
6418.76514 0.278833
6419.85693 0.278486
6420.95020 0.278162
6422.04297 0.27782
6423.13623 0.277414
6424.22900 0.277007
6425.32324 0.276601
6426.41602 0.276194
6427.50977 0.275787
6428.60400 0.27538
6429.69824 0.274973
6430.79199 0.274562
6431.88721 0.274149
6432.98096 0.273739
6434.07617 0.273329
6435.17090 0.272919
6436.26709 0.272509
6437.36182 0.272099
6438.45801 0.271688
6439.55420 0.271278
6440.64893 0.270867
6441.74609 0.270456
6442.84180 0.270128
6443.93799 0.269803
6445.03516 0.269478
6446.13184 0.269152
6447.22900 0.268827
6448.32715 0.268501
6449.42383 0.268175
6450.52197 0.267838
6451.62012 0.267486
6452.71777 0.267266
6453.81592 0.267068
6454.91504 0.26687
6456.01318 0.266672
6457.11182 0.266475
6458.21094 0.266277
6459.31006 0.266079
6460.40918 0.26589
6461.50879 0.265717
6462.60791 0.265703
6463.70801 0.265742
6464.80908 0.26578
6465.90918 0.265819
6467.00879 0.265858
6468.10986 0.265897
6469.21094 0.265936
6470.31201 0.265974
6471.41309 0.266013
6472.51514 0.266168
6473.61621 0.266382
6474.71777 0.266596
6475.81982 0.266811
6476.92188 0.267025
6478.02393 0.26724
6479.12695 0.267455
6480.22900 0.267669
6481.33301 0.267884
6482.43604 0.268169
6483.53906 0.268505
6484.64209 0.268841
6485.74609 0.269176
6486.85010 0.269512
6487.95410 0.269848
6489.05811 0.270184
6490.16309 0.270517
6491.26709 0.270827
6492.37207 0.271169
6493.47705 0.271539
6494.58203 0.27191
6495.68799 0.27228
6496.79297 0.272651
6497.89795 0.273021
6499.00391 0.273392
6500.11084 0.273759
6501.21680 0.274097
6502.32324 0.274427
6503.43018 0.274747
6504.53711 0.275067
6505.64404 0.275387
6506.75098 0.275707
6507.85889 0.276026
6508.96582 0.276346
6510.07422 0.276665
6511.18213 0.276984
6512.29004 0.277262
6513.39795 0.277487
6514.50684 0.277712
6515.61621 0.277937
6516.72510 0.278162
6517.83398 0.278386
6518.94287 0.278611
6520.05322 0.278834
6521.16309 0.279032
6522.27197 0.279189
6523.38184 0.27929
6524.49316 0.279392
6525.60303 0.279493
6526.71387 0.279594
6527.82520 0.279695
6528.93604 0.279797
6530.04688 0.279899
6531.15820 0.280026
6532.27002 0.280117
6533.38086 0.280158
6534.49414 0.280199
6535.60498 0.280239
6536.71777 0.28028
6537.83105 0.280321
6538.94287 0.280361
6540.05615 0.280402
6541.16895 0.280442
6542.28223 0.280453
6543.39600 0.280425
6544.50977 0.280397
6545.62402 0.280369
6546.73682 0.280341
6547.85205 0.280313
6548.96582 0.280285
6550.08105 0.280257
6551.19482 0.280229
6552.31104 0.280186
6553.42578 0.280125
6554.54102 0.280065
6555.65723 0.280004
6556.77197 0.279943
6557.88818 0.279883
6559.00391 0.279822
6560.12109 0.279759
6561.23682 0.279671
6562.35400 0.279578
6563.47119 0.279479
6564.58789 0.27938
6565.70508 0.279281
6566.82324 0.279182
6567.93994 0.279083
6569.05811 0.278984
6570.17578 0.27889
6571.29395 0.278817
6572.41309 0.278743
6573.53076 0.278666
6574.64990 0.278589
6575.76904 0.278512
6576.88818 0.278436
6578.00781 0.278359
6579.12695 0.278282
6580.24707 0.278206
6581.36719 0.278129
6582.48682 0.278033
6583.60693 0.277926
6584.72803 0.277818
6585.84912 0.27771
6586.96924 0.277603
6588.08984 0.277495
6589.21191 0.277387
6590.33301 0.277272
6591.45508 0.277137
6592.57715 0.276983
6593.69922 0.27682
6594.82080 0.276657
6595.94287 0.276494
6597.06592 0.276331
6598.18896 0.276168
6599.31201 0.276005
6600.43506 0.275852
6601.55811 0.275716
6602.68213 0.275556
6603.80615 0.275389
6604.93018 0.275222
6606.05420 0.275056
6607.17822 0.274889
6608.30322 0.274722
6609.42676 0.274556
6610.55176 0.274389
6611.67676 0.274222
6612.80176 0.274048
6613.92822 0.273872
6615.05420 0.273696
6616.18018 0.27352
6617.30615 0.273344
6618.43213 0.273169
6619.55811 0.272993
6620.68506 0.272817
6621.81201 0.272642
6622.93799 0.272484
6624.06592 0.272327
6625.19287 0.272169
6626.32080 0.272012
6627.44922 0.271855
6628.57715 0.271698
6629.70508 0.27154
6630.83301 0.271355
6631.96094 0.271164
6633.08984 0.271005
6634.21924 0.270846
6635.34814 0.270688
6636.47803 0.270529
6637.60693 0.270371
6638.73682 0.270212
6639.86719 0.270054
6640.99707 0.269919
6642.12695 0.269797
6643.25781 0.269708
6644.38818 0.269618
6645.51904 0.269529
6646.64990 0.269439
6647.78076 0.26935
6648.91309 0.26926
6650.04395 0.269171
6651.17578 0.269081
6652.30811 0.268998
6653.43994 0.268924
6654.57324 0.268851
6655.70605 0.268778
6656.83789 0.268704
6657.97119 0.268631
6659.10400 0.268557
6660.23779 0.268478
6661.37109 0.268378
6662.50488 0.26826
6663.63916 0.268129
6664.77295 0.267998
6665.90723 0.267867
6667.04199 0.267736
6668.17676 0.267605
6669.31201 0.267473
6670.44580 0.267353
6671.58203 0.267248
6672.71680 0.267091
6673.85303 0.266918
6674.98877 0.266745
6676.12500 0.266572
6677.26123 0.2664
6678.39697 0.266227
6679.53418 0.266055
6680.67090 0.265882
6681.80811 0.26571
6682.94482 0.265507
6684.08301 0.265304
6685.22021 0.2651
6686.35791 0.264896
6687.49609 0.264693
6688.63379 0.26449
6689.77197 0.264286
6690.91113 0.264062
6692.04980 0.263826
6693.18896 0.263557
6694.32812 0.263288
6695.46680 0.263019
6696.60693 0.26275
6697.74707 0.262482
6698.88721 0.262213
6700.02686 0.261945
6701.16699 0.261702
6702.30811 0.26147
6703.44824 0.261252
6704.58887 0.261033
6705.72998 0.260815
6706.87207 0.260597
6708.01318 0.26038
6709.15479 0.260162
6710.29688 0.259944
6711.43799 0.259726
6712.58105 0.259545
6713.72412 0.259385
6714.86621 0.259225
6716.00879 0.259065
6717.15186 0.258905
6718.29492 0.258745
6719.43799 0.258586
6720.58203 0.258413
6721.72607 0.258227
6722.87012 0.258133
6724.01416 0.258049
6725.15918 0.257966
6726.30322 0.257883
6727.44824 0.2578
6728.59277 0.257717
6729.73779 0.257634
6730.88379 0.25757
6732.02881 0.257528
6733.17480 0.257578
6734.32080 0.257628
6735.46680 0.257678
6736.61279 0.257728
6737.75977 0.257778
6738.90723 0.257828
6740.05420 0.257877
6741.20117 0.257927
6742.34814 0.258012
6743.49609 0.258144
6744.64307 0.258275
6745.79102 0.258407
6746.93896 0.258539
6748.08691 0.25867
6749.23584 0.258802
6750.38477 0.258925
6751.53418 0.25903
6752.68311 0.259168
6753.83203 0.259319
6754.98096 0.25947
6756.13086 0.259622
6757.28076 0.259772
6758.43115 0.259923
6759.58203 0.260074
6760.73193 0.26024
6761.88184 0.260416
6763.03320 0.260572
6764.18506 0.260728
6765.33496 0.260883
6766.48682 0.261038
6767.63916 0.261194
6768.79102 0.261349
6769.94189 0.261504
6771.09521 0.261659
6772.24707 0.261799
6773.39990 0.261907
6774.55322 0.262016
6775.70605 0.262125
6776.85889 0.262234
6778.01221 0.262342
6779.16602 0.262451
6780.31885 0.262552
6781.47412 0.262634
6782.62793 0.262671
6783.78223 0.262684
6784.93701 0.262697
6786.09082 0.26271
6787.24707 0.262723
6788.40088 0.262737
6789.55713 0.26275
6790.71191 0.262779
6791.86816 0.262818
6793.02393 0.262805
6794.18018 0.262793
6795.33691 0.26278
6796.49316 0.262768
6797.64990 0.262755
6798.80713 0.262743
6799.96387 0.26273
6801.12207 0.262718
6802.27881 0.262692
6803.43701 0.262642
6804.59521 0.262592
6805.75195 0.262541
6806.91113 0.262491
6808.06885 0.262441
6809.22803 0.262391
6810.38721 0.262332
6811.54590 0.262255
6812.70605 0.262165
6813.86523 0.26207
6815.02393 0.261974
6816.18506 0.261879
6817.34521 0.261784
6818.50488 0.261688
6819.66602 0.261593
6820.82617 0.261516
6821.98682 0.261447
6823.14795 0.261373
6824.30908 0.261299
6825.47119 0.261225
6826.63184 0.261151
6827.79395 0.261077
6828.95703 0.261003
6830.11914 0.26093
6831.28076 0.260863
6832.44385 0.260785
6833.60596 0.260695
6834.77002 0.260604
6835.93311 0.260514
6837.09619 0.260423
6838.25977 0.260333
6839.42383 0.260243
6840.58789 0.260139
6841.75195 0.260022
6842.91699 0.259905
6844.08105 0.259788
6845.24609 0.259671
6846.41113 0.259553
6847.57617 0.259436
6848.74219 0.259319
6849.90723 0.259201
6851.07324 0.259108
6852.23877 0.259016
6853.40479 0.258921
6854.57178 0.258825
6855.73779 0.25873
6856.90479 0.258635
6858.07178 0.25854
6859.24023 0.258445
6860.40723 0.25834
6861.57520 0.258219
6862.74219 0.258114
6863.91113 0.258015
6865.07910 0.257916
6866.24707 0.257817
6867.41602 0.257718
6868.58398 0.257619
6869.75293 0.25752
6870.92285 0.257441
6872.09180 0.257369
6873.26221 0.257303
6874.43213 0.257236
6875.60205 0.257169
6876.77100 0.257103
6877.94189 0.257036
6879.11279 0.25697
6880.28418 0.256903
6881.45508 0.256836
6882.62500 0.256797
6883.79688 0.256773
6884.96924 0.25675
6886.14111 0.256727
6887.31299 0.256704
6888.48486 0.25668
6889.65723 0.256657
6890.83008 0.256615
6892.00195 0.256564
6893.17480 0.256488
6894.34912 0.256412
6895.52197 0.256336
6896.69580 0.25626
6897.86914 0.256184
6899.04297 0.256108
6900.21777 0.256037
6901.39209 0.255987
6902.56592 0.255896
6903.74121 0.255775
6904.91699 0.255653
6906.09082 0.255531
6907.26709 0.25541
6908.44189 0.255288
6909.61816 0.255167
6910.79395 0.255045
6911.97021 0.254917
6913.14697 0.254674
6914.32324 0.254431
6915.50000 0.254188
6916.67676 0.253945
6917.85400 0.253702
6919.03223 0.25346
6920.20898 0.253212
6921.38721 0.252944
6922.56494 0.252573
6923.74316 0.252121
6924.92188 0.25167
6926.10010 0.251219
6927.27881 0.250767
6928.45801 0.250316
6929.63721 0.249865
6930.81689 0.249432
6931.99609 0.249
6933.17578 0.248475
6934.35596 0.247951
6935.53613 0.247426
6936.71680 0.246901
6937.89697 0.246377
6939.07812 0.245853
6940.25879 0.245323
6941.43994 0.244774
6942.62207 0.244202
6943.80322 0.243614
6944.98486 0.243026
6946.16699 0.242438
6947.35010 0.241851
6948.53223 0.241264
6949.71387 0.240677
6950.89697 0.24011
6952.08008 0.239562
6953.26416 0.239102
6954.44678 0.238642
6955.62988 0.238182
6956.81396 0.237723
6957.99902 0.237263
6959.18311 0.236804
6960.36719 0.236344
6961.55176 0.235885
6962.73584 0.235569
6963.92090 0.235316
6965.10693 0.235064
6966.29199 0.234811
6967.47803 0.234559
6968.66406 0.234307
6969.85010 0.234054
6971.03613 0.233782
6972.22217 0.233574
6973.40918 0.233571
6974.59619 0.233568
6975.78320 0.233565
6976.97021 0.233561
6978.15820 0.233558
6979.34521 0.233555
6980.53320 0.233562
6981.72119 0.233583
6982.90918 0.233784
6984.09814 0.234024
6985.28711 0.234263
6986.47607 0.234502
6987.66504 0.234741
6988.85400 0.23498
6990.04297 0.235218
6991.23291 0.235457
6992.42285 0.235764
6993.61279 0.236169
6994.80322 0.236573
6995.99414 0.236977
6997.18408 0.237381
6998.37500 0.237785
6999.56592 0.238188
7000.75781 0.238566
7001.94922 0.238929
7003.14111 0.239292
7004.33301 0.239655
7005.52490 0.240017
7006.71680 0.240379
7007.91016 0.240741
7009.10303 0.241103
7010.29492 0.24147
7011.48779 0.241856
7012.68213 0.242167
7013.87500 0.242434
7015.06885 0.2427
7016.26318 0.242966
7017.45703 0.243231
7018.65088 0.243497
7019.84619 0.243763
7021.04102 0.244006
7022.23584 0.244204
7023.43115 0.244274
7024.62598 0.244344
7025.82178 0.244415
7027.01807 0.244485
7028.21289 0.244555
7029.41016 0.244625
7030.60596 0.244702
7031.80322 0.244787
7033.00000 0.244774
7034.19580 0.244748
7035.39404 0.244723
7036.59082 0.244697
7037.78906 0.244671
7038.98584 0.244645
7040.18506 0.244619
7041.38281 0.244594
7042.58105 0.244471
7043.77979 0.244264
7044.97900 0.244058
7046.17822 0.243851
7047.37695 0.243645
7048.57617 0.243438
7049.77588 0.243232
7050.97607 0.243005
7052.17578 0.242658
7053.37598 0.24183
7054.57715 0.241002
7055.77686 0.240175
7056.97803 0.239348
7058.17920 0.238522
7059.37988 0.237696
7060.58203 0.236883
7061.78418 0.236083
7062.98486 0.23405
7064.18799 0.231823
7065.39014 0.229598
7066.59180 0.227373
7067.79492 0.22515
7068.99805 0.222928
7070.20117 0.220703
7071.40381 0.218461
7072.60791 0.215139
7073.81201 0.210927
7075.01611 0.206716
7076.22021 0.20251
7077.42383 0.198307
7078.62793 0.194106
7079.83301 0.189908
7081.03809 0.185732
7082.24316 0.181257
7083.44922 0.17583
7084.65381 0.170408
7085.85986 0.164987
7087.06592 0.159572
7088.27197 0.154156
7089.47900 0.148747
7090.68506 0.143331
7091.89209 0.137911
7093.09912 0.132746
7094.30615 0.1276
7095.51416 0.122457
7096.72119 0.117319
7097.92920 0.112183
7099.13721 0.107052
7100.34619 0.101927
7101.55420 0.096815
7102.76318 0.092548
7103.97217 0.088707
7105.18115 0.084869
7106.39014 0.081034
7107.59912 0.0772
7108.80908 0.073367
7110.01904 0.069537
7111.22900 0.065709
7112.43896 0.062392
7113.64990 0.059853
7114.85986 0.057315
7116.07080 0.054778
7117.28320 0.052242
7118.49414 0.049709
7119.70605 0.047175
7120.91699 0.044641
7122.12891 0.042235
7123.34082 0.040631
7124.55420 0.039028
7125.76611 0.037428
7126.97900 0.035828
7128.19189 0.034229
7129.40479 0.032632
7130.61914 0.031037
7131.83203 0.029446
7133.04590 0.028364
7134.25977 0.027346
7135.47412 0.026328
7136.68799 0.02531
7137.90283 0.024294
7139.11816 0.023277
7140.33301 0.022261
7141.54785 0.021244
7142.76416 0.020447
7143.97900 0.019767
7145.19482 0.019087
7146.41211 0.018408
7147.62793 0.017729
7148.84424 0.017051
7150.06104 0.016374
7151.27783 0.015699
7152.49512 0.015107
7153.71191 0.014628
7154.93018 0.014148
7156.14697 0.013669
7157.36621 0.01319
7158.58398 0.012711
7159.80176 0.012233
7161.02100 0.011754
7162.23877 0.011301
7163.45801 0.010941
7164.67822 0.010581
7165.89697 0.010222
7167.11719 0.009863
7168.33594 0.009504
7169.55713 0.009146
7170.77686 0.008788
7171.99707 0.008432
7173.21777 0.008156
7174.43799 0.00788
7175.66016 0.007605
7176.88086 0.007329
7178.10303 0.007053
7179.32422 0.006778
7180.54590 0.006503
7181.76807 0.006228
7182.99023 0.006004
7184.21289 0.00579
7185.43604 0.005576
7186.65918 0.005363
7187.88184 0.005149
7189.10498 0.004936
7190.32910 0.004723
7191.55176 0.00451
7192.77588 0.004329
7194.00000 0.004167
7195.22510 0.004005
7196.45020 0.003843
7197.67383 0.003681
7198.89893 0.00352
7200.12500 0.003358
7201.35010 0.003197
7202.57617 0.003058
7203.80176 0.002941
7205.02783 0.002825
7206.25391 0.002709
7207.47998 0.002593
7208.70703 0.002477
7209.93408 0.002361
7211.16113 0.002245
7212.38818 0.00214
7213.61621 0.00206
7214.84424 0.00198
7216.07178 0.001899
7217.29980 0.001819
7218.52783 0.001739
7219.75684 0.001659
7220.98486 0.001579
7222.21387 0.001504
7223.44287 0.00145
7224.67285 0.001396
7225.90186 0.001341
7227.13184 0.001287
7228.36182 0.001233
7229.59277 0.001179
7230.82324 0.001125
7232.05420 0.001071
7233.28516 0.001035
7234.51611 0.000998
7235.74707 0.000961
7236.97900 0.000924
7238.20996 0.000887
7239.44189 0.00085
7240.67383 0.000814
7241.90723 0.000777
7243.13916 0.000751
7244.37207 0.000726
7245.60498 0.000701
7246.83789 0.000676
7248.07080 0.000651
7249.30518 0.000626
7250.53906 0.000601
7251.77295 0.000576
7253.00684 0.000558
7254.24121 0.000542
7255.47607 0.000526
7256.71094 0.00051
7257.94580 0.000493
7259.18115 0.000477
7260.41699 0.000461
7261.65186 0.000445
7262.88818 0.000432
7264.12500 0.00042
7265.36084 0.000407
7991.89697 0.0
