# %ECSV 0.9
# ---
# datatype:
# - {name: wavelength, unit: Angstrom, datatype: float32}
# - {name: response, datatype: float32}
# meta: !!omap
# - {band_name: f785lp}
# - {group_name: WFPC2}
wavelength response
6723.00000 0.0
7470.00000 0.004747
7480.00000 0.005648
7490.00000 0.006864
7500.00000 0.008113
7510.00000 0.009779
7520.00000 0.011479
7530.00000 0.013715
7540.00000 0.015966
7550.00000 0.019728
7576.00000 0.020376
7578.00000 0.021029
7580.00000 0.021644
7582.00000 0.022296
7584.00000 0.023023
7586.00000 0.023657
7588.00000 0.024384
7590.00000 0.02513
7592.00000 0.025876
7594.00000 0.026659
7596.00000 0.027423
7598.00000 0.028225
7600.00000 0.029026
7602.00000 0.029865
7604.00000 0.030704
7606.00000 0.031562
7608.00000 0.032438
7610.00000 0.03337
7612.00000 0.034302
7614.00000 0.03529
7616.00000 0.03626
7618.00000 0.037267
7620.00000 0.038292
7622.00000 0.039336
7624.00000 0.040399
7626.00000 0.04148
7628.00000 0.04258
7630.00000 0.043698
7632.00000 0.044836
7634.00000 0.046047
7636.00000 0.047241
7638.00000 0.048415
7640.00000 0.049645
7642.00000 0.050876
7644.00000 0.052161
7646.00000 0.053449
7648.00000 0.05479
7650.00000 0.056133
7652.00000 0.057476
7654.00000 0.058837
7656.00000 0.060291
7658.00000 0.061689
7660.00000 0.063143
7662.00000 0.064672
7664.00000 0.066219
7666.00000 0.067766
7668.00000 0.069388
7670.00000 0.07101
7672.00000 0.07267
7674.00000 0.074328
7676.00000 0.075969
7678.00000 0.077647
7680.00000 0.079363
7682.00000 0.081114
7684.00000 0.082905
7686.00000 0.084656
7688.00000 0.086446
7690.00000 0.088273
7692.00000 0.090193
7694.00000 0.09202
7696.00000 0.093961
7698.00000 0.0959
7700.00000 0.097839
7702.00000 0.099834
7704.00000 0.101772
7706.00000 0.103767
7708.00000 0.105781
7710.00000 0.10785
7712.00000 0.110013
7714.00000 0.112138
7716.00000 0.114282
7718.00000 0.116426
7720.00000 0.118682
7722.00000 0.1209
7724.00000 0.123119
7726.00000 0.125449
7728.00000 0.127761
7730.00000 0.130054
7732.00000 0.132403
7734.00000 0.134826
7736.00000 0.137213
7738.00000 0.139543
7740.00000 0.141948
7742.00000 0.144334
7744.00000 0.146795
7746.00000 0.1492
7748.00000 0.151698
7750.00000 0.154122
7752.00000 0.156583
7754.00000 0.159137
7756.00000 0.161616
7758.00000 0.164152
7760.00000 0.166762
7762.00000 0.169391
7764.00000 0.172075
7766.00000 0.174648
7768.00000 0.177258
7770.00000 0.179905
7772.00000 0.182571
7774.00000 0.185331
7776.00000 0.188052
7778.00000 0.190867
7780.00000 0.193664
7782.00000 0.196386
7784.00000 0.199238
7786.00000 0.201941
7788.00000 0.204794
7790.00000 0.207683
7792.00000 0.210536
7794.00000 0.213463
7796.00000 0.216185
7798.00000 0.219056
7800.00000 0.221983
7802.00000 0.224761
7804.00000 0.227706
7806.00000 0.230596
7808.00000 0.233411
7810.00000 0.236263
7812.00000 0.239246
7814.00000 0.242248
7816.00000 0.24523
7818.00000 0.24812
7820.00000 0.250972
7822.00000 0.253881
7824.00000 0.256883
7826.00000 0.259847
7828.00000 0.262848
7830.00000 0.265924
7832.00000 0.269
7834.00000 0.272058
7836.00000 0.275097
7838.00000 0.27808
7840.00000 0.281118
7842.00000 0.284269
7844.00000 0.287345
7846.00000 0.290533
7848.00000 0.29346
7850.00000 0.296499
7852.00000 0.299407
7854.00000 0.302446
7856.00000 0.305448
7858.00000 0.308486
7860.00000 0.3116
7862.00000 0.314639
7864.00000 0.317752
7866.00000 0.320772
7868.00000 0.323774
7870.00000 0.326813
7872.00000 0.329665
7874.00000 0.33276
7876.00000 0.335854
7878.00000 0.33893
7880.00000 0.341951
7882.00000 0.344934
7884.00000 0.347935
7886.00000 0.351123
7888.00000 0.354106
7890.00000 0.357201
7892.00000 0.360258
7894.00000 0.36339
7896.00000 0.366448
7898.00000 0.36943
7900.00000 0.372432
7902.00000 0.375415
7904.00000 0.378323
7906.00000 0.381306
7908.00000 0.384252
7910.00000 0.387086
7912.00000 0.390068
7914.00000 0.3932
7916.00000 0.396202
7918.00000 0.39911
7920.00000 0.402224
7922.00000 0.404946
7924.00000 0.408022
7926.00000 0.410725
7928.00000 0.413596
7930.00000 0.416523
7932.00000 0.419338
7934.00000 0.422451
7936.00000 0.425304
7938.00000 0.428324
7940.00000 0.431158
7942.00000 0.43401
7944.00000 0.436956
7946.00000 0.439901
7948.00000 0.44253
7950.00000 0.445401
7952.00000 0.448179
7954.00000 0.451087
7956.00000 0.453977
7958.00000 0.456661
7960.00000 0.459495
7962.00000 0.462236
7964.00000 0.465051
7966.00000 0.467698
7968.00000 0.470513
7970.00000 0.47344
7972.00000 0.476162
7974.00000 0.479014
7976.00000 0.481531
7978.00000 0.484104
7980.00000 0.486733
7982.00000 0.489399
7984.00000 0.491915
7986.00000 0.494395
7988.00000 0.497079
7990.00000 0.499559
7992.00000 0.502262
7994.00000 0.505003
7996.00000 0.507557
7998.00000 0.510148
8000.00000 0.52592
8002.00000 0.528195
8004.00000 0.530227
8006.00000 0.532371
8008.00000 0.534664
8010.00000 0.536714
8012.00000 0.539008
8014.00000 0.541245
8016.00000 0.543445
8018.00000 0.545775
8020.00000 0.547826
8022.00000 0.54997
8024.00000 0.552095
8026.00000 0.554314
8028.00000 0.556346
8030.00000 0.558601
8032.00000 0.560428
8034.00000 0.562572
8036.00000 0.564455
8038.00000 0.566618
8040.00000 0.568874
8042.00000 0.571148
8044.00000 0.573236
8046.00000 0.575697
8048.00000 0.577636
8050.00000 0.579948
8052.00000 0.581793
8054.00000 0.583993
8056.00000 0.586249
8058.00000 0.58843
8060.00000 0.590481
8062.00000 0.592662
8064.00000 0.594694
8066.00000 0.597099
8068.00000 0.599038
8070.00000 0.601294
8072.00000 0.603568
8074.00000 0.605414
8076.00000 0.607502
8078.00000 0.609721
8080.00000 0.611697
8082.00000 0.613729
8084.00000 0.61563
8086.00000 0.617607
8088.00000 0.619751
8090.00000 0.621484
8092.00000 0.623218
8094.00000 0.625232
8096.00000 0.627115
8098.00000 0.629314
8100.00000 0.63116
8102.00000 0.63323
8104.00000 0.635094
8106.00000 0.637126
8108.00000 0.63899
8110.00000 0.641004
8112.00000 0.642644
8114.00000 0.644565
8116.00000 0.646392
8118.00000 0.648237
8120.00000 0.650158
8122.00000 0.651891
8124.00000 0.653588
8126.00000 0.65521
8128.00000 0.656757
8130.00000 0.658491
8132.00000 0.66043
8134.00000 0.662257
8136.00000 0.664214
8138.00000 0.665967
8140.00000 0.667663
8142.00000 0.669266
8144.00000 0.670851
8146.00000 0.672343
8148.00000 0.673946
8150.00000 0.675531
8152.00000 0.677563
8154.00000 0.67911
8156.00000 0.680769
8158.00000 0.68241
8160.00000 0.683771
8162.00000 0.68502
8164.00000 0.686381
8166.00000 0.687686
8168.00000 0.689159
8170.00000 0.690799
8172.00000 0.692365
8174.00000 0.69423
8176.00000 0.695572
8178.00000 0.696896
8180.00000 0.698312
8182.00000 0.69986
8184.00000 0.701388
8186.00000 0.702414
8188.00000 0.703943
8190.00000 0.705322
8192.00000 0.706832
8194.00000 0.708342
8196.00000 0.709517
8198.00000 0.710915
8200.00000 0.711903
8202.00000 0.713003
8204.00000 0.714401
8206.00000 0.715706
8208.00000 0.717011
8210.00000 0.718298
8212.00000 0.719696
8214.00000 0.721075
8216.00000 0.722306
8218.00000 0.723294
8220.00000 0.724543
8222.00000 0.72568
8224.00000 0.727041
8226.00000 0.728104
8228.00000 0.72926
8230.00000 0.730285
8232.00000 0.731105
8234.00000 0.731963
8236.00000 0.733212
8238.00000 0.734051
8240.00000 0.7353
8242.00000 0.736475
8244.00000 0.737668
8246.00000 0.738656
8248.00000 0.7397
8250.00000 0.740651
8252.00000 0.741807
8254.00000 0.743112
8256.00000 0.744118
8258.00000 0.745312
8260.00000 0.746094
8262.00000 0.747213
8264.00000 0.747884
8266.00000 0.748854
8268.00000 0.750028
8270.00000 0.751389
8272.00000 0.752676
8274.00000 0.753906
8276.00000 0.754782
8278.00000 0.755845
8280.00000 0.756535
8282.00000 0.757429
8284.00000 0.758324
8286.00000 0.759406
8288.00000 0.760506
8290.00000 0.761531
8292.00000 0.762314
8294.00000 0.763134
8296.00000 0.763936
8298.00000 0.764756
8300.00000 0.766005
8302.00000 0.767348
8304.00000 0.768354
8306.00000 0.76951
8308.00000 0.770107
8310.00000 0.771076
8312.00000 0.771747
8314.00000 0.772474
8316.00000 0.773295
8318.00000 0.774451
8320.00000 0.775551
8322.00000 0.776483
8324.00000 0.777322
8326.00000 0.777881
8328.00000 0.778571
8330.00000 0.779204
8332.00000 0.780193
8334.00000 0.781386
8336.00000 0.782336
8338.00000 0.783287
8340.00000 0.784182
8342.00000 0.784965
8344.00000 0.785692
8346.00000 0.786308
8348.00000 0.787091
8350.00000 0.787724
8352.00000 0.788563
8354.00000 0.789272
8356.00000 0.790055
8358.00000 0.790931
8360.00000 0.791677
8362.00000 0.792217
8364.00000 0.792926
8366.00000 0.793821
8368.00000 0.79479
8370.00000 0.795498
8372.00000 0.796468
8374.00000 0.797121
8376.00000 0.797848
8378.00000 0.798519
8380.00000 0.799227
8382.00000 0.799954
8384.00000 0.800514
8386.00000 0.801129
8388.00000 0.801856
8390.00000 0.802658
8392.00000 0.80331
8394.00000 0.803925
8396.00000 0.804615
8398.00000 0.805473
8400.00000 0.806181
8402.00000 0.807337
8404.00000 0.807579
8406.00000 0.808213
8408.00000 0.808698
8410.00000 0.809071
8412.00000 0.809686
8414.00000 0.810059
8416.00000 0.810693
8418.00000 0.811438
8420.00000 0.811904
8422.00000 0.812557
8424.00000 0.813004
8426.00000 0.813825
8428.00000 0.814645
8430.00000 0.815353
8432.00000 0.816062
8434.00000 0.816808
8436.00000 0.816994
8438.00000 0.817609
8440.00000 0.817945
8442.00000 0.818448
8444.00000 0.81897
8446.00000 0.819436
8448.00000 0.819902
8450.00000 0.820368
8452.00000 0.820835
8454.00000 0.821543
8456.00000 0.822009
8458.00000 0.822568
8460.00000 0.823109
8462.00000 0.823948
8464.00000 0.824563
8466.00000 0.825253
8468.00000 0.825551
8470.00000 0.826278
8472.00000 0.826614
8474.00000 0.826856
8476.00000 0.827192
8478.00000 0.827639
8480.00000 0.82859
8482.00000 0.829205
8484.00000 0.829783
8486.00000 0.830305
8488.00000 0.830771
8490.00000 0.831125
8492.00000 0.831573
8494.00000 0.832356
8496.00000 0.833102
8498.00000 0.833568
8500.00000 0.833903
8502.00000 0.834202
8504.00000 0.834145
8506.00000 0.834388
8508.00000 0.834705
8510.00000 0.835693
8512.00000 0.83629
8514.00000 0.836812
8516.00000 0.837408
8518.00000 0.837818
8520.00000 0.838117
8522.00000 0.838415
8524.00000 0.83903
8526.00000 0.839589
8528.00000 0.840037
8530.00000 0.840615
8532.00000 0.84095
8534.00000 0.841174
8536.00000 0.841733
8538.00000 0.841882
8540.00000 0.842274
8542.00000 0.842833
8544.00000 0.843001
8546.00000 0.843672
8548.00000 0.844213
8550.00000 0.844604
8552.00000 0.84494
8554.00000 0.845052
8556.00000 0.845443
8558.00000 0.845294
8560.00000 0.845723
8562.00000 0.846543
8564.00000 0.84714
8566.00000 0.847587
8568.00000 0.848109
8570.00000 0.84837
8572.00000 0.848408
8574.00000 0.848743
8576.00000 0.84934
8578.00000 0.849675
8580.00000 0.850179
8582.00000 0.850682
8584.00000 0.850812
8586.00000 0.851148
8588.00000 0.851297
8590.00000 0.851446
8592.00000 0.851875
8594.00000 0.852528
8596.00000 0.852584
8598.00000 0.852956
8600.00000 0.853441
8602.00000 0.853404
8604.00000 0.853702
8606.00000 0.854467
8608.00000 0.854933
8610.00000 0.855324
8612.00000 0.85566
8614.00000 0.856051
8616.00000 0.855883
8618.00000 0.856349
8620.00000 0.856704
8622.00000 0.8573
8624.00000 0.857524
8626.00000 0.857692
8628.00000 0.857878
8630.00000 0.858251
8632.00000 0.858251
8634.00000 0.858959
8636.00000 0.85937
8638.00000 0.859575
8640.00000 0.859892
8642.00000 0.860003
8644.00000 0.860171
8646.00000 0.860619
8648.00000 0.860842
8650.00000 0.860786
8652.00000 0.861271
8654.00000 0.861588
8656.00000 0.862054
8658.00000 0.862669
8660.00000 0.862688
8662.00000 0.862874
8664.00000 0.862931
8666.00000 0.862856
8668.00000 0.863285
8670.00000 0.863863
8672.00000 0.864571
8674.00000 0.865242
8676.00000 0.865224
8678.00000 0.865596
8680.00000 0.865373
8682.00000 0.865429
8684.00000 0.865727
8686.00000 0.865839
8688.00000 0.866249
8690.00000 0.86679
8692.00000 0.866808
8694.00000 0.866976
8696.00000 0.866864
8698.00000 0.866939
8700.00000 0.867461
8702.00000 0.867908
8704.00000 0.868505
8706.00000 0.868635
8708.00000 0.868729
8710.00000 0.869045
8712.00000 0.86925
8714.00000 0.869567
8716.00000 0.869474
8718.00000 0.869772
8720.00000 0.869959
8722.00000 0.870033
8724.00000 0.870406
8726.00000 0.870537
8728.00000 0.871283
8730.00000 0.871264
8732.00000 0.871581
8734.00000 0.872233
8736.00000 0.872811
8738.00000 0.872942
8740.00000 0.872979
8742.00000 0.872793
8744.00000 0.872718
8746.00000 0.873259
8748.00000 0.873464
8750.00000 0.873855
8752.00000 0.87406
8754.00000 0.874657
8756.00000 0.874545
8758.00000 0.874601
8760.00000 0.874433
8762.00000 0.874545
8764.00000 0.874974
8766.00000 0.875664
8768.00000 0.876055
8770.00000 0.876465
8772.00000 0.87695
8774.00000 0.876521
8776.00000 0.876521
8778.00000 0.876484
8780.00000 0.876614
8782.00000 0.876577
8784.00000 0.877062
8786.00000 0.877472
8788.00000 0.877733
8790.00000 0.877901
8792.00000 0.878236
8794.00000 0.878348
8796.00000 0.87874
8798.00000 0.879057
8800.00000 0.879486
8802.00000 0.879653
8804.00000 0.879448
8806.00000 0.879448
8808.00000 0.879541
8810.00000 0.879672
8812.00000 0.87997
8814.00000 0.879933
8816.00000 0.880455
8818.00000 0.880641
8820.00000 0.881014
8822.00000 0.88135
8824.00000 0.881741
8826.00000 0.881648
8828.00000 0.881834
8830.00000 0.881834
8832.00000 0.882263
8834.00000 0.88286
8836.00000 0.882841
8838.00000 0.882972
8840.00000 0.88327
8842.00000 0.882841
8844.00000 0.883196
8846.00000 0.883084
8848.00000 0.883139
8850.00000 0.883046
8852.00000 0.883438
8854.00000 0.883699
8856.00000 0.883606
8858.00000 0.884053
8860.00000 0.88409
8862.00000 0.884351
8864.00000 0.884556
8866.00000 0.884873
8868.00000 0.884873
8870.00000 0.885023
8872.00000 0.884911
8874.00000 0.884948
8876.00000 0.885116
8878.00000 0.885339
8880.00000 0.885414
8882.00000 0.88547
8884.00000 0.885712
8886.00000 0.886122
8888.00000 0.886458
8890.00000 0.886514
8892.00000 0.886775
8894.00000 0.887054
8896.00000 0.887129
8898.00000 0.887204
8900.00000 0.887222
8902.00000 0.887241
8904.00000 0.886961
8906.00000 0.886961
8908.00000 0.887222
8910.00000 0.887651
8912.00000 0.888434
8914.00000 0.888341
8916.00000 0.888322
8918.00000 0.888639
8920.00000 0.88918
8922.00000 0.889161
8924.00000 0.889049
8926.00000 0.889348
8928.00000 0.88946
8930.00000 0.889534
8932.00000 0.889702
8934.00000 0.889721
8936.00000 0.889515
8938.00000 0.889534
8940.00000 0.889721
8942.00000 0.889926
8944.00000 0.890355
8946.00000 0.890541
8948.00000 0.890765
8950.00000 0.890839
8952.00000 0.890709
8954.00000 0.890914
8956.00000 0.891305
8958.00000 0.891231
8960.00000 0.891715
8962.00000 0.891491
8964.00000 0.891529
8966.00000 0.89138
8968.00000 0.89151
8970.00000 0.89192
8972.00000 0.891995
8974.00000 0.892275
8976.00000 0.892181
8978.00000 0.892386
8980.00000 0.892442
8982.00000 0.892871
8984.00000 0.892741
8986.00000 0.893039
8988.00000 0.893132
8990.00000 0.89371
8992.00000 0.89302
8994.00000 0.893281
8996.00000 0.893281
8998.00000 0.893114
9000.00000 0.893691
9002.00000 0.893468
9004.00000 0.894381
9006.00000 0.893766
9008.00000 0.895164
9010.00000 0.894736
9012.00000 0.89468
9014.00000 0.894251
9016.00000 0.895164
9018.00000 0.894624
9020.00000 0.894885
9022.00000 0.895034
9024.00000 0.894885
9026.00000 0.895258
9028.00000 0.894754
9030.00000 0.895388
9032.00000 0.896134
9034.00000 0.895873
9036.00000 0.895425
9038.00000 0.895836
9040.00000 0.895425
9042.00000 0.895612
9044.00000 0.895388
9046.00000 0.89563
9048.00000 0.896134
9050.00000 0.896674
9052.00000 0.8966
9054.00000 0.896786
9056.00000 0.896973
9058.00000 0.897103
9060.00000 0.896842
9062.00000 0.896879
9064.00000 0.896786
9066.00000 0.896712
9068.00000 0.896954
9070.00000 0.896898
9072.00000 0.896805
9074.00000 0.896693
9076.00000 0.897252
9078.00000 0.897737
9080.00000 0.898352
9082.00000 0.898445
9084.00000 0.898091
9086.00000 0.897942
9088.00000 0.897942
9090.00000 0.897942
9092.00000 0.897942
9094.00000 0.898334
9096.00000 0.898706
9098.00000 0.898893
9100.00000 0.898744
9102.00000 0.899079
9104.00000 0.899284
9106.00000 0.89949
9108.00000 0.899284
9110.00000 0.899415
9112.00000 0.899676
9114.00000 0.899844
9116.00000 0.899844
9118.00000 0.900011
9120.00000 0.899918
9122.00000 0.899713
9124.00000 0.899508
9126.00000 0.89949
9128.00000 0.899284
9130.00000 0.899732
9132.00000 0.900161
9134.00000 0.900683
9136.00000 0.900869
9138.00000 0.900925
9140.00000 0.900701
9142.00000 0.900739
9144.00000 0.900422
9146.00000 0.900198
9148.00000 0.900496
9150.00000 0.901018
9152.00000 0.900813
9154.00000 0.90085
9156.00000 0.900906
9158.00000 0.900832
9160.00000 0.900571
9162.00000 0.900757
9164.00000 0.901111
9166.00000 0.901354
9168.00000 0.901969
9170.00000 0.902416
9172.00000 0.90223
9174.00000 0.902081
9176.00000 0.901298
9178.00000 0.901279
9180.00000 0.901093
9182.00000 0.901484
9184.00000 0.901895
9186.00000 0.902118
9188.00000 0.901932
9190.00000 0.901745
9192.00000 0.90195
9194.00000 0.902062
9196.00000 0.902304
9198.00000 0.902491
9200.00000 0.903162
9202.00000 0.903199
9204.00000 0.903125
9206.00000 0.90305
9208.00000 0.903125
9210.00000 0.902752
9212.00000 0.90251
9214.00000 0.902584
9216.00000 0.902808
9218.00000 0.903013
9220.00000 0.902659
9222.00000 0.902957
9224.00000 0.903218
9226.00000 0.903852
9228.00000 0.904113
9230.00000 0.904281
9232.00000 0.904299
9234.00000 0.904318
9236.00000 0.904057
9238.00000 0.903964
9240.00000 0.903554
9242.00000 0.904057
9244.00000 0.903964
9246.00000 0.904318
9248.00000 0.904132
9250.00000 0.904374
9252.00000 0.904225
9254.00000 0.904169
9256.00000 0.903926
9258.00000 0.903945
9260.00000 0.904057
9262.00000 0.904262
9264.00000 0.904859
9266.00000 0.904915
9268.00000 0.905101
9270.00000 0.905437
9272.00000 0.905306
9274.00000 0.905194
9276.00000 0.905381
9278.00000 0.905287
9280.00000 0.905213
9282.00000 0.905287
9284.00000 0.905437
9286.00000 0.905381
9288.00000 0.905194
9290.00000 0.905474
9292.00000 0.905753
9294.00000 0.906071
9296.00000 0.906089
9298.00000 0.906276
9300.00000 0.905698
9302.00000 0.905753
9304.00000 0.905548
9306.00000 0.905437
9308.00000 0.905679
9310.00000 0.906071
9312.00000 0.905735
9314.00000 0.906182
9316.00000 0.906201
9318.00000 0.906257
9320.00000 0.906331
9322.00000 0.90635
9324.00000 0.90635
9326.00000 0.906555
9328.00000 0.906406
9330.00000 0.906555
9332.00000 0.906593
9334.00000 0.90663
9336.00000 0.906835
9338.00000 0.906928
9340.00000 0.907115
9342.00000 0.907096
9344.00000 0.906816
9346.00000 0.906518
9348.00000 0.906499
9350.00000 0.906462
9352.00000 0.906276
9354.00000 0.906518
9356.00000 0.907077
9358.00000 0.907543
9360.00000 0.907674
9362.00000 0.908177
9364.00000 0.908158
9366.00000 0.908214
9368.00000 0.908158
9370.00000 0.907804
9372.00000 0.908252
9374.00000 0.908196
9376.00000 0.908569
9378.00000 0.908886
9380.00000 0.908345
9382.00000 0.908326
9384.00000 0.907506
9386.00000 0.907357
9388.00000 0.907376
9390.00000 0.907879
9392.00000 0.908606
9394.00000 0.909109
9396.00000 0.909109
9398.00000 0.909333
9400.00000 0.908997
9402.00000 0.908643
9404.00000 0.908438
9406.00000 0.908606
9408.00000 0.908494
9410.00000 0.908736
9412.00000 0.909035
9414.00000 0.908718
9416.00000 0.908848
9418.00000 0.908308
9420.00000 0.908382
9422.00000 0.908401
9424.00000 0.908774
9426.00000 0.908718
9428.00000 0.908997
9430.00000 0.909389
9432.00000 0.909613
9434.00000 0.90937
9436.00000 0.909668
9438.00000 0.909296
9440.00000 0.909165
9442.00000 0.909314
9444.00000 0.908941
9446.00000 0.909463
9448.00000 0.909557
9450.00000 0.909799
9452.00000 0.909874
9454.00000 0.910153
9456.00000 0.910135
9458.00000 0.910116
9460.00000 0.909389
9462.00000 0.909408
9464.00000 0.908997
9466.00000 0.908941
9468.00000 0.909352
9470.00000 0.909575
9472.00000 0.910135
9474.00000 0.910396
9476.00000 0.910619
9478.00000 0.910377
9480.00000 0.909948
9482.00000 0.909706
9484.00000 0.909538
9486.00000 0.909892
9488.00000 0.909874
9490.00000 0.910209
9492.00000 0.910265
9494.00000 0.910191
9496.00000 0.910023
9498.00000 0.909706
9500.00000 0.909762
9502.00000 0.910079
9504.00000 0.910377
9506.00000 0.910955
9508.00000 0.911235
9510.00000 0.911328
9512.00000 0.911738
9514.00000 0.911645
9516.00000 0.911719
9518.00000 0.911589
9520.00000 0.911048
9522.00000 0.910675
9524.00000 0.910451
9526.00000 0.910209
9528.00000 0.910508
9530.00000 0.910675
9532.00000 0.910675
9534.00000 0.911328
9536.00000 0.910768
9538.00000 0.911458
9540.00000 0.911458
9542.00000 0.911663
9544.00000 0.911645
9546.00000 0.911552
9548.00000 0.912018
9550.00000 0.912521
9552.00000 0.91185
9554.00000 0.911831
9556.00000 0.911924
9558.00000 0.912241
9560.00000 0.912297
9562.00000 0.911253
9564.00000 0.910918
9566.00000 0.911179
9568.00000 0.910619
9570.00000 0.911011
9572.00000 0.911067
9574.00000 0.911533
9576.00000 0.912111
9578.00000 0.912502
9580.00000 0.912335
9582.00000 0.912726
9584.00000 0.912689
9586.00000 0.912241
9588.00000 0.912484
9590.00000 0.911887
9592.00000 0.911552
9594.00000 0.911421
9596.00000 0.911533
9598.00000 0.91198
9600.00000 0.912353
9602.00000 0.912241
9604.00000 0.912484
9606.00000 0.912353
9608.00000 0.912241
9610.00000 0.912577
9612.00000 0.912912
9614.00000 0.913285
9616.00000 0.91377
9618.00000 0.913658
9620.00000 0.913192
9622.00000 0.91295
9624.00000 0.912968
9626.00000 0.912763
9628.00000 0.913267
9630.00000 0.912856
9632.00000 0.912819
9634.00000 0.912372
9636.00000 0.912409
9638.00000 0.912521
9640.00000 0.91239
9642.00000 0.912856
9644.00000 0.913173
9646.00000 0.91336
9648.00000 0.913397
9650.00000 0.913285
9652.00000 0.912987
9654.00000 0.912856
9656.00000 0.913006
9658.00000 0.913211
9660.00000 0.913435
9662.00000 0.913453
9664.00000 0.913173
9666.00000 0.913285
9668.00000 0.913248
9670.00000 0.913658
9672.00000 0.913826
9674.00000 0.913584
9676.00000 0.91349
9678.00000 0.912968
9680.00000 0.912353
9682.00000 0.912428
9684.00000 0.912689
9686.00000 0.913211
9688.00000 0.91377
9690.00000 0.913378
9692.00000 0.913602
9694.00000 0.913528
9696.00000 0.913192
9698.00000 0.913378
9700.00000 0.913789
9702.00000 0.914068
9704.00000 0.913695
9706.00000 0.91349
9708.00000 0.913323
9710.00000 0.913938
9712.00000 0.913956
9714.00000 0.914292
9716.00000 0.914012
9718.00000 0.914423
9720.00000 0.914124
9722.00000 0.914087
9724.00000 0.914199
9726.00000 0.914012
9728.00000 0.914106
9730.00000 0.913621
9732.00000 0.91377
9734.00000 0.913994
9736.00000 0.913826
9738.00000 0.914106
9740.00000 0.914031
9742.00000 0.914348
9744.00000 0.914161
9746.00000 0.914404
9748.00000 0.914273
9750.00000 0.914646
9752.00000 0.914497
9754.00000 0.914292
9756.00000 0.914106
9758.00000 0.913956
9760.00000 0.913621
9762.00000 0.913435
9764.00000 0.913677
9766.00000 0.914255
9768.00000 0.915168
9770.00000 0.91528
9772.00000 0.915168
9774.00000 0.915168
9776.00000 0.914963
9778.00000 0.914945
9780.00000 0.915261
9782.00000 0.914758
9784.00000 0.913901
9786.00000 0.913863
9788.00000 0.913901
9790.00000 0.914292
9792.00000 0.914833
9794.00000 0.91528
9796.00000 0.915746
9798.00000 0.915523
9800.00000 0.915672
9802.00000 0.915224
9804.00000 0.915429
9806.00000 0.915355
9808.00000 0.915317
9810.00000 0.915392
9812.00000 0.915299
9814.00000 0.915094
9816.00000 0.914982
9818.00000 0.91474
9820.00000 0.914553
9822.00000 0.915019
9824.00000 0.914945
9826.00000 0.915112
9828.00000 0.914814
9830.00000 0.914758
9832.00000 0.915373
9834.00000 0.915504
9836.00000 0.915355
9838.00000 0.915765
9840.00000 0.915485
9842.00000 0.915634
9844.00000 0.915336
9846.00000 0.915597
9848.00000 0.914777
9850.00000 0.914497
9852.00000 0.914795
9854.00000 0.914516
9856.00000 0.915336
9858.00000 0.915578
9860.00000 0.91569
9862.00000 0.915914
9864.00000 0.915988
9866.00000 0.916156
9868.00000 0.916231
9870.00000 0.915578
9872.00000 0.915541
9874.00000 0.915187
9876.00000 0.915019
9878.00000 0.915243
9880.00000 0.915317
9882.00000 0.915653
9884.00000 0.915821
9886.00000 0.916138
9888.00000 0.916007
9890.00000 0.915933
9892.00000 0.91569
9894.00000 0.915373
9896.00000 0.915765
9898.00000 0.916138
9900.00000 0.916212
9902.00000 0.91638
9904.00000 0.916119
9906.00000 0.915877
9908.00000 0.915597
9910.00000 0.915709
9912.00000 0.915448
9914.00000 0.915765
9916.00000 0.91597
9918.00000 0.915541
9920.00000 0.915578
9922.00000 0.9161
9924.00000 0.916082
9926.00000 0.915858
9928.00000 0.915709
9930.00000 0.915858
9932.00000 0.91597
9934.00000 0.916007
9936.00000 0.915821
9938.00000 0.915914
9940.00000 0.915672
9942.00000 0.915317
9944.00000 0.915634
9946.00000 0.915541
9948.00000 0.915821
9950.00000 0.915709
9952.00000 0.915616
9954.00000 0.915653
9956.00000 0.916548
9958.00000 0.916622
9960.00000 0.916734
9962.00000 0.916511
9964.00000 0.916194
9966.00000 0.916063
9968.00000 0.916287
9970.00000 0.915858
9972.00000 0.915746
9974.00000 0.915988
9976.00000 0.915802
9978.00000 0.915504
9980.00000 0.915877
9982.00000 0.915802
9984.00000 0.915914
9986.00000 0.916119
9988.00000 0.91625
9990.00000 0.916007
9992.00000 0.915634
9994.00000 0.915168
9996.00000 0.915672
9998.00000 0.915746
10000.00000 0.915597
10002.00000 0.915914
10004.00000 0.915821
10006.00000 0.915877
10008.00000 0.91625
10010.00000 0.915951
10012.00000 0.915653
10014.00000 0.915634
10016.00000 0.91597
10018.00000 0.916063
10020.00000 0.915988
10022.00000 0.915802
10024.00000 0.915373
10026.00000 0.915541
10028.00000 0.915746
10030.00000 0.915634
10032.00000 0.915914
10034.00000 0.915653
10036.00000 0.914851
10038.00000 0.915094
10040.00000 0.915448
10042.00000 0.915951
10044.00000 0.915616
10046.00000 0.915765
10048.00000 0.915094
10050.00000 0.915187
10052.00000 0.915038
10054.00000 0.914889
10056.00000 0.915206
10058.00000 0.915523
10060.00000 0.915728
10062.00000 0.916082
10064.00000 0.915821
10066.00000 0.91556
10068.00000 0.915877
10070.00000 0.915634
10072.00000 0.915616
10074.00000 0.915951
10076.00000 0.916063
10078.00000 0.915783
10080.00000 0.915821
10082.00000 0.915802
10084.00000 0.915634
10086.00000 0.915672
10088.00000 0.916007
10090.00000 0.916287
10092.00000 0.916436
10094.00000 0.91666
10096.00000 0.916529
10098.00000 0.916511
10100.00000 0.916007
10102.00000 0.915765
10104.00000 0.915821
10106.00000 0.915783
10108.00000 0.915728
10110.00000 0.916045
10112.00000 0.915317
10114.00000 0.915653
10116.00000 0.915802
10118.00000 0.915355
10120.00000 0.915783
10122.00000 0.915466
10124.00000 0.915728
10126.00000 0.915448
10128.00000 0.915411
10130.00000 0.915504
10132.00000 0.91569
10134.00000 0.915765
10136.00000 0.915672
10138.00000 0.915466
10140.00000 0.915131
10142.00000 0.91528
10144.00000 0.915728
10146.00000 0.915802
10148.00000 0.915988
10150.00000 0.915914
10152.00000 0.916231
10154.00000 0.915933
10156.00000 0.91569
10158.00000 0.915523
10160.00000 0.915336
10162.00000 0.915317
10164.00000 0.915448
10166.00000 0.915448
10168.00000 0.916082
10170.00000 0.916305
10172.00000 0.916082
10174.00000 0.916287
10176.00000 0.91597
10178.00000 0.915933
10180.00000 0.915988
10182.00000 0.91556
10184.00000 0.915616
10186.00000 0.915056
10188.00000 0.914795
10190.00000 0.914851
10192.00000 0.915038
10194.00000 0.915168
10196.00000 0.914963
10198.00000 0.915392
10200.00000 0.915094
10202.00000 0.914814
10204.00000 0.915168
10206.00000 0.915038
10208.00000 0.915224
10210.00000 0.91556
10212.00000 0.915839
10214.00000 0.915728
10216.00000 0.915709
10218.00000 0.915355
10220.00000 0.914963
10222.00000 0.914963
10224.00000 0.915
10226.00000 0.915
10228.00000 0.914665
10230.00000 0.914516
10232.00000 0.914758
10234.00000 0.915448
10236.00000 0.915317
10238.00000 0.915504
10240.00000 0.915877
10242.00000 0.915895
10244.00000 0.915541
10246.00000 0.915299
10248.00000 0.914665
10250.00000 0.91474
10252.00000 0.914665
10254.00000 0.914423
10256.00000 0.914721
10258.00000 0.914683
10260.00000 0.914665
10262.00000 0.914945
10264.00000 0.914926
10266.00000 0.915038
10268.00000 0.914945
10270.00000 0.915206
10272.00000 0.914889
10274.00000 0.915131
10276.00000 0.915206
10278.00000 0.914814
10280.00000 0.914777
10282.00000 0.914926
10284.00000 0.914646
10286.00000 0.914628
10288.00000 0.914516
10290.00000 0.914161
10292.00000 0.914366
10294.00000 0.913751
10296.00000 0.913994
10298.00000 0.914889
10300.00000 0.915019
10302.00000 0.915373
10304.00000 0.914814
10306.00000 0.914385
10308.00000 0.914218
10310.00000 0.91418
10312.00000 0.913882
10314.00000 0.913807
10316.00000 0.914068
10318.00000 0.914124
10320.00000 0.91446
10322.00000 0.914124
10324.00000 0.913789
10326.00000 0.914199
10328.00000 0.914143
10330.00000 0.913826
10332.00000 0.913677
10334.00000 0.913789
10336.00000 0.914012
10338.00000 0.913826
10340.00000 0.91349
10342.00000 0.913584
10344.00000 0.914143
10346.00000 0.914553
10348.00000 0.914273
10350.00000 0.91405
10352.00000 0.914963
10354.00000 0.91474
10356.00000 0.915019
10358.00000 0.91418
10360.00000 0.914236
10362.00000 0.914106
10364.00000 0.913602
10366.00000 0.913435
10368.00000 0.913695
10370.00000 0.91349
10372.00000 0.913938
10374.00000 0.913956
10376.00000 0.914012
10378.00000 0.913901
10380.00000 0.913826
10382.00000 0.91377
10384.00000 0.91377
10386.00000 0.913844
10388.00000 0.913397
10390.00000 0.913341
10392.00000 0.913378
10394.00000 0.913304
10396.00000 0.913192
10398.00000 0.913435
10400.00000 0.913435
10402.00000 0.913509
10404.00000 0.91377
10406.00000 0.913528
10408.00000 0.91364
10410.00000 0.913248
10412.00000 0.912726
10414.00000 0.912763
10416.00000 0.912819
10418.00000 0.912558
10420.00000 0.913006
10422.00000 0.913099
10424.00000 0.913509
10426.00000 0.913826
10428.00000 0.913528
10430.00000 0.913528
10432.00000 0.913733
10434.00000 0.913341
10436.00000 0.91336
10438.00000 0.913323
10440.00000 0.913323
10442.00000 0.913155
10444.00000 0.913118
10446.00000 0.912838
10448.00000 0.913192
10450.00000 0.91364
10452.00000 0.914068
10454.00000 0.913807
10456.00000 0.913546
10458.00000 0.913453
10460.00000 0.913099
10462.00000 0.912838
10464.00000 0.91295
10466.00000 0.912968
10468.00000 0.913024
10470.00000 0.912539
10472.00000 0.912372
10474.00000 0.912577
10476.00000 0.912782
10478.00000 0.912614
10480.00000 0.912968
10482.00000 0.912968
10484.00000 0.912745
10486.00000 0.912856
10488.00000 0.912819
10490.00000 0.912801
10492.00000 0.913099
10494.00000 0.912838
10496.00000 0.913621
10498.00000 0.913584
10500.00000 0.912763
10502.00000 0.912726
10504.00000 0.912577
10506.00000 0.912446
10508.00000 0.912577
10510.00000 0.912782
10512.00000 0.913155
10514.00000 0.913006
10516.00000 0.912838
10518.00000 0.912502
10520.00000 0.912577
10522.00000 0.912092
10524.00000 0.911589
10526.00000 0.911813
10528.00000 0.91185
10530.00000 0.912036
10532.00000 0.912018
10534.00000 0.912372
10536.00000 0.912465
10538.00000 0.911738
10540.00000 0.912465
10542.00000 0.912018
10544.00000 0.912074
10546.00000 0.911999
10548.00000 0.911402
10550.00000 0.911291
10552.00000 0.911067
10554.00000 0.910992
10556.00000 0.911365
10558.00000 0.911085
10560.00000 0.910862
10562.00000 0.910936
10564.00000 0.910768
10566.00000 0.910768
10568.00000 0.910638
10570.00000 0.910899
10572.00000 0.91116
10574.00000 0.911514
10576.00000 0.911328
10578.00000 0.911309
10580.00000 0.910862
10582.00000 0.91103
10584.00000 0.91088
10586.00000 0.910843
10588.00000 0.911104
10590.00000 0.911067
10592.00000 0.910825
10594.00000 0.911048
10596.00000 0.911141
10598.00000 0.911291
10600.00000 0.911048
10602.00000 0.910657
10604.00000 0.91075
10606.00000 0.910396
10608.00000 0.910228
10610.00000 0.910153
10612.00000 0.909762
10614.00000 0.910451
10616.00000 0.910451
10618.00000 0.910545
10620.00000 0.910657
10622.00000 0.910191
10624.00000 0.910768
10626.00000 0.91034
10628.00000 0.911011
10630.00000 0.910526
10632.00000 0.910508
10634.00000 0.909445
10636.00000 0.909296
10638.00000 0.909333
10640.00000 0.909165
10642.00000 0.90937
10644.00000 0.909258
10646.00000 0.910191
10648.00000 0.910265
10650.00000 0.910023
10652.00000 0.910396
10654.00000 0.910172
10656.00000 0.910209
10658.00000 0.910601
10660.00000 0.909986
10662.00000 0.909892
10664.00000 0.90952
10666.00000 0.90937
10668.00000 0.909296
10670.00000 0.909408
10672.00000 0.909091
10674.00000 0.909053
10676.00000 0.908923
10678.00000 0.908587
10680.00000 0.909109
10682.00000 0.909035
10684.00000 0.909146
10686.00000 0.909501
10688.00000 0.909557
10690.00000 0.909557
10692.00000 0.90937
10694.00000 0.909016
10696.00000 0.909221
10698.00000 0.908755
10700.00000 0.908923
10702.00000 0.908755
10704.00000 0.90855
10706.00000 0.908233
10708.00000 0.908345
10710.00000 0.90814
10712.00000 0.908177
10714.00000 0.90842
10716.00000 0.908718
10718.00000 0.909035
10720.00000 0.909016
10722.00000 0.908755
10724.00000 0.908718
10726.00000 0.908979
10728.00000 0.908997
10730.00000 0.908699
10732.00000 0.90855
10734.00000 0.908624
10736.00000 0.908326
10738.00000 0.907823
10740.00000 0.90773
10742.00000 0.908196
10744.00000 0.907823
10746.00000 0.908047
10748.00000 0.908252
10750.00000 0.90855
10752.00000 0.908811
10754.00000 0.908699
10756.00000 0.90814
10758.00000 0.907972
10760.00000 0.90773
10762.00000 0.906928
10764.00000 0.906611
10766.00000 0.906947
10768.00000 0.906499
10770.00000 0.906816
10772.00000 0.907021
10774.00000 0.907376
10776.00000 0.907394
10778.00000 0.90745
10780.00000 0.907338
10782.00000 0.907096
10784.00000 0.907543
10786.00000 0.907264
10788.00000 0.907208
10790.00000 0.907413
10792.00000 0.907058
10794.00000 0.906835
10796.00000 0.906462
10798.00000 0.906052
10800.00000 0.906555
10802.00000 0.906331
10804.00000 0.906071
10806.00000 0.906257
10808.00000 0.906331
10810.00000 0.906779
10812.00000 0.906164
10814.00000 0.906387
10816.00000 0.906574
10818.00000 0.90635
10820.00000 0.906052
10822.00000 0.906089
10824.00000 0.905958
10826.00000 0.905865
10828.00000 0.90553
10830.00000 0.90512
10832.00000 0.905194
10834.00000 0.90553
10836.00000 0.905642
10838.00000 0.906033
10840.00000 0.906089
10842.00000 0.905977
10844.00000 0.905623
10846.00000 0.90594
10848.00000 0.905437
10850.00000 0.905138
10852.00000 0.904989
10854.00000 0.90525
10856.00000 0.905474
10858.00000 0.905623
10860.00000 0.905399
10862.00000 0.905642
10864.00000 0.905437
10866.00000 0.905642
10868.00000 0.905772
10870.00000 0.905381
10872.00000 0.905343
10874.00000 0.905157
10876.00000 0.904989
10878.00000 0.904598
10880.00000 0.904691
10882.00000 0.904206
10884.00000 0.904281
10886.00000 0.904094
10888.00000 0.904635
10890.00000 0.904877
10892.00000 0.904896
10894.00000 0.905679
10896.00000 0.905157
10898.00000 0.904766
10900.00000 0.904374
10902.00000 0.904337
10904.00000 0.903703
10906.00000 0.903833
10908.00000 0.903572
10910.00000 0.903628
10912.00000 0.903684
10914.00000 0.903703
10916.00000 0.903889
10918.00000 0.903479
10920.00000 0.903498
10922.00000 0.903572
10924.00000 0.903442
10926.00000 0.903666
10928.00000 0.90374
10930.00000 0.903926
10932.00000 0.903759
10934.00000 0.903405
10936.00000 0.903125
10938.00000 0.902771
10940.00000 0.902789
10942.00000 0.902416
10944.00000 0.902789
10946.00000 0.903013
10948.00000 0.90305
10950.00000 0.903311
10952.00000 0.903069
10954.00000 0.902957
10956.00000 0.90305
10958.00000 0.903032
10960.00000 0.902584
10962.00000 0.902249
10964.00000 0.902118
10966.00000 0.901913
10968.00000 0.901969
10970.00000 0.901857
10972.00000 0.902043
10974.00000 0.901652
10976.00000 0.901652
10978.00000 0.901895
10980.00000 0.902193
10982.00000 0.902081
10984.00000 0.902043
10986.00000 0.902267
10988.00000 0.901857
10990.00000 0.901484
10992.00000 0.901186
10994.00000 0.900906
10996.00000 0.900664
10998.00000 0.899918
11000.00000 0.900664
12100.00000 0.0
