# %ECSV 0.9
# ---
# datatype:
# - {name: wavelength, unit: Angstrom, datatype: float32}
# - {name: response, datatype: float32}
# meta: !!omap
# - {band_name: N}
# - {group_name: CanariCam}
wavelength response
65934.00000 0.0
73260.00000 0.004065
73270.00000 0.004181
73280.00000 0.004295
73290.00000 0.004402
73300.00000 0.004504
73310.00000 0.004597
73320.00000 0.004674
73330.00000 0.00474
73340.00000 0.004791
73350.00000 0.004828
73360.00000 0.004851
73370.00000 0.004866
73380.00000 0.004871
73390.00000 0.004869
73400.00000 0.004868
73410.00000 0.004864
73420.00000 0.004862
73430.00000 0.004864
73440.00000 0.00487
73450.00000 0.004879
73460.00000 0.004893
73470.00000 0.004909
73480.00000 0.004928
73490.00000 0.004949
73500.00000 0.004973
73510.00000 0.004999
73520.00000 0.005028
73530.00000 0.005059
73540.00000 0.005094
73550.00000 0.005132
73560.00000 0.005173
73570.00000 0.005217
73580.00000 0.005262
73590.00000 0.005307
73600.00000 0.005353
73610.00000 0.005396
73620.00000 0.005436
73630.00000 0.005474
73640.00000 0.005508
73650.00000 0.005538
73660.00000 0.005566
73670.00000 0.005594
73680.00000 0.005621
73690.00000 0.005651
73700.00000 0.005684
73710.00000 0.005721
73720.00000 0.005765
73730.00000 0.005816
73740.00000 0.005874
73750.00000 0.005939
73760.00000 0.006013
73770.00000 0.006095
73780.00000 0.006184
73790.00000 0.006282
73800.00000 0.006385
73810.00000 0.006494
73820.00000 0.006608
73830.00000 0.006723
73840.00000 0.00684
73850.00000 0.006957
73860.00000 0.00707
73870.00000 0.007181
73880.00000 0.00729
73890.00000 0.007396
73900.00000 0.0075
73910.00000 0.007605
73920.00000 0.00771
73930.00000 0.007816
73940.00000 0.007926
73950.00000 0.008039
73960.00000 0.008154
73970.00000 0.008269
73980.00000 0.008385
73990.00000 0.008498
74000.00000 0.008606
74010.00000 0.008709
74020.00000 0.008808
74030.00000 0.008902
74040.00000 0.008993
74050.00000 0.009088
74060.00000 0.009184
74070.00000 0.009286
74080.00000 0.009399
74090.00000 0.009522
74100.00000 0.009652
74110.00000 0.00979
74120.00000 0.009935
74130.00000 0.010079
74140.00000 0.01022
74150.00000 0.010358
74160.00000 0.010485
74170.00000 0.010602
74180.00000 0.010711
74190.00000 0.010812
74200.00000 0.010905
74210.00000 0.010998
74220.00000 0.011094
74230.00000 0.011193
74240.00000 0.011301
74250.00000 0.011421
74260.00000 0.011551
74270.00000 0.01169
74280.00000 0.011841
74290.00000 0.011999
74300.00000 0.012159
74310.00000 0.012323
74320.00000 0.012488
74330.00000 0.012651
74340.00000 0.012814
74350.00000 0.012978
74360.00000 0.013145
74370.00000 0.013314
74380.00000 0.01349
74390.00000 0.013673
74400.00000 0.013861
74410.00000 0.014054
74420.00000 0.014253
74430.00000 0.014451
74440.00000 0.014645
74450.00000 0.014837
74460.00000 0.015019
74470.00000 0.01519
74480.00000 0.015351
74490.00000 0.015501
74500.00000 0.015637
74510.00000 0.015764
74520.00000 0.015889
74530.00000 0.016007
74540.00000 0.016131
74550.00000 0.016271
74560.00000 0.016421
74570.00000 0.016597
74580.00000 0.016808
74590.00000 0.017049
74600.00000 0.017322
74610.00000 0.017633
74620.00000 0.017973
74630.00000 0.018326
74640.00000 0.018699
74650.00000 0.019077
74660.00000 0.019441
74670.00000 0.019798
74680.00000 0.02014
74690.00000 0.020456
74700.00000 0.020751
74710.00000 0.021029
74720.00000 0.021286
74730.00000 0.021524
74740.00000 0.021755
74750.00000 0.021975
74760.00000 0.022187
74770.00000 0.022401
74780.00000 0.022612
74790.00000 0.022826
74800.00000 0.023047
74810.00000 0.023274
74820.00000 0.023508
74830.00000 0.023752
74840.00000 0.024005
74850.00000 0.024266
74860.00000 0.024537
74870.00000 0.024817
74880.00000 0.025106
74890.00000 0.025404
74900.00000 0.025711
74910.00000 0.026026
74920.00000 0.026351
74930.00000 0.026684
74940.00000 0.027025
74950.00000 0.027374
74960.00000 0.027732
74970.00000 0.028097
74980.00000 0.028471
74990.00000 0.028853
75000.00000 0.029244
75010.00000 0.029644
75020.00000 0.030051
75030.00000 0.030465
75040.00000 0.030887
75050.00000 0.03131
75060.00000 0.031738
75070.00000 0.032167
75080.00000 0.032597
75090.00000 0.033025
75100.00000 0.033458
75110.00000 0.033895
75120.00000 0.034337
75130.00000 0.034791
75140.00000 0.03526
75150.00000 0.035743
75160.00000 0.036247
75170.00000 0.036774
75180.00000 0.037321
75190.00000 0.037884
75200.00000 0.038464
75210.00000 0.039058
75220.00000 0.039654
75230.00000 0.040258
75240.00000 0.040861
75250.00000 0.041457
75260.00000 0.042047
75270.00000 0.042634
75280.00000 0.043217
75290.00000 0.043796
75300.00000 0.044376
75310.00000 0.044958
75320.00000 0.045542
75330.00000 0.046134
75340.00000 0.046736
75350.00000 0.047346
75360.00000 0.047969
75370.00000 0.048601
75380.00000 0.049246
75390.00000 0.049909
75400.00000 0.05059
75410.00000 0.051288
75420.00000 0.052005
75430.00000 0.052739
75440.00000 0.05349
75450.00000 0.054254
75460.00000 0.055035
75470.00000 0.055825
75480.00000 0.056619
75490.00000 0.057419
75500.00000 0.058224
75510.00000 0.059032
75520.00000 0.059845
75530.00000 0.060661
75540.00000 0.061477
75550.00000 0.062298
75560.00000 0.063128
75570.00000 0.063964
75580.00000 0.064811
75590.00000 0.065673
75600.00000 0.066549
75610.00000 0.067442
75620.00000 0.068359
75630.00000 0.069298
75640.00000 0.070258
75650.00000 0.071241
75660.00000 0.072245
75670.00000 0.073271
75680.00000 0.074318
75690.00000 0.075385
75700.00000 0.076478
75710.00000 0.077595
75720.00000 0.078739
75730.00000 0.079915
75740.00000 0.081126
75750.00000 0.08237
75760.00000 0.083644
75770.00000 0.084956
75780.00000 0.086292
75790.00000 0.087638
75800.00000 0.089002
75810.00000 0.09037
75820.00000 0.091723
75830.00000 0.093067
75840.00000 0.094403
75850.00000 0.095727
75860.00000 0.097035
75870.00000 0.098357
75880.00000 0.099709
75890.00000 0.101081
75900.00000 0.102499
75910.00000 0.103981
75920.00000 0.105515
75930.00000 0.107098
75940.00000 0.108739
75950.00000 0.110427
75960.00000 0.112131
75970.00000 0.113849
75980.00000 0.115581
75990.00000 0.117311
76000.00000 0.119036
76010.00000 0.120764
76020.00000 0.122496
76030.00000 0.124226
76040.00000 0.125968
76050.00000 0.127741
76060.00000 0.129537
76070.00000 0.131366
76080.00000 0.133239
76090.00000 0.135149
76100.00000 0.137108
76110.00000 0.139128
76120.00000 0.141206
76130.00000 0.143332
76140.00000 0.145507
76150.00000 0.147732
76160.00000 0.14999
76170.00000 0.152276
76180.00000 0.154593
76190.00000 0.156915
76200.00000 0.15923
76210.00000 0.161547
76220.00000 0.163864
76230.00000 0.166174
76240.00000 0.168485
76250.00000 0.170814
76260.00000 0.173152
76270.00000 0.175512
76280.00000 0.177923
76290.00000 0.180382
76300.00000 0.18289
76310.00000 0.185455
76320.00000 0.188079
76330.00000 0.190758
76340.00000 0.19349
76350.00000 0.196277
76360.00000 0.199115
76370.00000 0.201998
76380.00000 0.204926
76390.00000 0.207904
76400.00000 0.210934
76410.00000 0.214017
76420.00000 0.217145
76430.00000 0.220314
76440.00000 0.223528
76450.00000 0.226771
76460.00000 0.230033
76470.00000 0.23332
76480.00000 0.236624
76490.00000 0.239937
76500.00000 0.243263
76510.00000 0.246616
76520.00000 0.249997
76530.00000 0.253405
76540.00000 0.256859
76550.00000 0.260364
76560.00000 0.263916
76570.00000 0.267517
76580.00000 0.271172
76590.00000 0.274875
76600.00000 0.278612
76610.00000 0.282388
76620.00000 0.286197
76630.00000 0.290024
76640.00000 0.293867
76650.00000 0.297729
76660.00000 0.301611
76670.00000 0.305508
76680.00000 0.309428
76690.00000 0.313383
76700.00000 0.317365
76710.00000 0.321387
76720.00000 0.325467
76730.00000 0.329601
76740.00000 0.333792
76750.00000 0.338048
76760.00000 0.342367
76770.00000 0.346747
76780.00000 0.351187
76790.00000 0.355692
76800.00000 0.36025
76810.00000 0.364846
76820.00000 0.369488
76830.00000 0.374166
76840.00000 0.37887
76850.00000 0.383608
76860.00000 0.388369
76870.00000 0.393144
76880.00000 0.397938
76890.00000 0.402751
76900.00000 0.407582
76910.00000 0.412433
76920.00000 0.4173
76930.00000 0.42218
76940.00000 0.427076
76950.00000 0.431983
76960.00000 0.436901
76970.00000 0.44183
76980.00000 0.446764
76990.00000 0.451697
77000.00000 0.456631
77010.00000 0.461571
77020.00000 0.466515
77030.00000 0.471463
77040.00000 0.476427
77050.00000 0.481409
77060.00000 0.486406
77070.00000 0.491432
77080.00000 0.496492
77090.00000 0.501582
77100.00000 0.506697
77110.00000 0.511841
77120.00000 0.517012
77130.00000 0.522187
77140.00000 0.527365
77150.00000 0.532548
77160.00000 0.537712
77170.00000 0.542849
77180.00000 0.547967
77190.00000 0.553056
77200.00000 0.55811
77210.00000 0.563135
77220.00000 0.568135
77230.00000 0.57311
77240.00000 0.57806
77250.00000 0.582995
77260.00000 0.587916
77270.00000 0.592822
77280.00000 0.597713
77290.00000 0.602593
77300.00000 0.607458
77310.00000 0.612301
77320.00000 0.617123
77330.00000 0.621922
77340.00000 0.626687
77350.00000 0.631417
77360.00000 0.636112
77370.00000 0.640767
77380.00000 0.645379
77390.00000 0.64995
77400.00000 0.654478
77410.00000 0.658961
77420.00000 0.663401
77430.00000 0.667799
77440.00000 0.672159
77450.00000 0.676476
77460.00000 0.680746
77470.00000 0.684969
77480.00000 0.689144
77490.00000 0.693261
77500.00000 0.697323
77510.00000 0.701327
77520.00000 0.705261
77530.00000 0.709119
77540.00000 0.712908
77550.00000 0.716635
77560.00000 0.720297
77570.00000 0.723899
77580.00000 0.727457
77590.00000 0.73097
77600.00000 0.73444
77610.00000 0.737887
77620.00000 0.741322
77630.00000 0.744734
77640.00000 0.748111
77650.00000 0.751458
77660.00000 0.75477
77670.00000 0.75803
77680.00000 0.761242
77690.00000 0.764401
77700.00000 0.767486
77710.00000 0.770489
77720.00000 0.773418
77730.00000 0.776277
77740.00000 0.779065
77750.00000 0.781784
77760.00000 0.784434
77770.00000 0.787013
77780.00000 0.789524
77790.00000 0.791975
77800.00000 0.794372
77810.00000 0.796712
77820.00000 0.798986
77830.00000 0.801193
77840.00000 0.803335
77850.00000 0.805408
77860.00000 0.807415
77870.00000 0.809354
77880.00000 0.811218
77890.00000 0.812999
77900.00000 0.814702
77910.00000 0.816337
77920.00000 0.817905
77930.00000 0.819404
77940.00000 0.820845
77950.00000 0.822232
77960.00000 0.823559
77970.00000 0.824844
77980.00000 0.826096
77990.00000 0.827309
78000.00000 0.828486
78010.00000 0.829627
78020.00000 0.830733
78030.00000 0.8318
78040.00000 0.832828
78050.00000 0.833818
78060.00000 0.83476
78070.00000 0.835646
78080.00000 0.836481
78090.00000 0.837259
78100.00000 0.837975
78110.00000 0.838629
78120.00000 0.839226
78130.00000 0.839769
78140.00000 0.840251
78150.00000 0.84069
78160.00000 0.8411
78170.00000 0.841472
78180.00000 0.841821
78190.00000 0.842169
78200.00000 0.842507
78210.00000 0.84284
78220.00000 0.843174
78230.00000 0.843513
78240.00000 0.843849
78250.00000 0.844174
78260.00000 0.844494
78270.00000 0.844801
78280.00000 0.845077
78290.00000 0.845326
78300.00000 0.845546
78310.00000 0.845729
78320.00000 0.845875
78330.00000 0.845983
78340.00000 0.846051
78350.00000 0.846076
78360.00000 0.84606
78370.00000 0.846006
78380.00000 0.845914
78390.00000 0.845784
78400.00000 0.845615
78410.00000 0.845406
78420.00000 0.845159
78430.00000 0.844877
78440.00000 0.844561
78450.00000 0.84421
78460.00000 0.843827
78470.00000 0.843412
78480.00000 0.842964
78490.00000 0.842492
78500.00000 0.842001
78510.00000 0.841487
78520.00000 0.840958
78530.00000 0.840418
78540.00000 0.839864
78550.00000 0.839305
78560.00000 0.83875
78570.00000 0.838194
78580.00000 0.837642
78590.00000 0.837098
78600.00000 0.836561
78610.00000 0.836031
78620.00000 0.835513
78630.00000 0.835008
78640.00000 0.834512
78650.00000 0.834018
78660.00000 0.833533
78670.00000 0.833049
78680.00000 0.83256
78690.00000 0.832067
78700.00000 0.831568
78710.00000 0.831054
78720.00000 0.830523
78730.00000 0.829977
78740.00000 0.829419
78750.00000 0.828845
78760.00000 0.828258
78770.00000 0.827665
78780.00000 0.827066
78790.00000 0.826461
78800.00000 0.825853
78810.00000 0.825248
78820.00000 0.824642
78830.00000 0.824034
78840.00000 0.82342
78850.00000 0.822804
78860.00000 0.822182
78870.00000 0.821552
78880.00000 0.820914
78890.00000 0.820271
78900.00000 0.819625
78910.00000 0.818974
78920.00000 0.818322
78930.00000 0.817677
78940.00000 0.817034
78950.00000 0.816399
78960.00000 0.815779
78970.00000 0.815172
78980.00000 0.81458
78990.00000 0.814007
79000.00000 0.813454
79010.00000 0.812921
79020.00000 0.812406
79030.00000 0.811912
79040.00000 0.811438
79050.00000 0.810974
79060.00000 0.810522
79070.00000 0.810082
79080.00000 0.809644
79090.00000 0.809203
79100.00000 0.808762
79110.00000 0.808316
79120.00000 0.80786
79130.00000 0.807395
79140.00000 0.806924
79150.00000 0.806445
79160.00000 0.805958
79170.00000 0.805467
79180.00000 0.804978
79190.00000 0.804489
79200.00000 0.804
79210.00000 0.803516
79220.00000 0.803034
79230.00000 0.802556
79240.00000 0.802083
79250.00000 0.801612
79260.00000 0.801146
79270.00000 0.80069
79280.00000 0.800242
79290.00000 0.799802
79300.00000 0.799385
79310.00000 0.798997
79320.00000 0.798632
79330.00000 0.798297
79340.00000 0.798
79350.00000 0.79774
79360.00000 0.797507
79370.00000 0.797297
79380.00000 0.797119
79390.00000 0.796954
79400.00000 0.796782
79410.00000 0.796611
79420.00000 0.796434
79430.00000 0.796234
79440.00000 0.796011
79450.00000 0.795768
79460.00000 0.795507
79470.00000 0.795222
79480.00000 0.794919
79490.00000 0.794615
79500.00000 0.794316
79510.00000 0.794015
79520.00000 0.793727
79530.00000 0.793461
79540.00000 0.79321
79550.00000 0.792978
79560.00000 0.79277
79570.00000 0.792584
79580.00000 0.792418
79590.00000 0.792266
79600.00000 0.792131
79610.00000 0.79201
79620.00000 0.791901
79630.00000 0.791805
79640.00000 0.791721
79650.00000 0.791642
79660.00000 0.791568
79670.00000 0.7915
79680.00000 0.791432
79690.00000 0.791363
79700.00000 0.791293
79710.00000 0.791224
79720.00000 0.791152
79730.00000 0.791078
79740.00000 0.79101
79750.00000 0.790955
79760.00000 0.790908
79770.00000 0.790876
79780.00000 0.790869
79790.00000 0.790883
79800.00000 0.790921
79810.00000 0.790988
79820.00000 0.791086
79830.00000 0.791211
79840.00000 0.791364
79850.00000 0.791545
79860.00000 0.791753
79870.00000 0.791983
79880.00000 0.792233
79890.00000 0.792506
79900.00000 0.792794
79910.00000 0.79309
79920.00000 0.793401
79930.00000 0.793719
79940.00000 0.794037
79950.00000 0.794357
79960.00000 0.794679
79970.00000 0.794998
79980.00000 0.795314
79990.00000 0.795627
80000.00000 0.79594
80010.00000 0.796251
80020.00000 0.796561
80030.00000 0.796875
80040.00000 0.797197
80050.00000 0.797523
80060.00000 0.797856
80070.00000 0.798198
80080.00000 0.798548
80090.00000 0.798904
80100.00000 0.799265
80110.00000 0.799633
80120.00000 0.800006
80130.00000 0.80038
80140.00000 0.800755
80150.00000 0.801134
80160.00000 0.80152
80170.00000 0.801913
80180.00000 0.802314
80190.00000 0.802727
80200.00000 0.803157
80210.00000 0.8036
80220.00000 0.80406
80230.00000 0.804539
80240.00000 0.805038
80250.00000 0.805551
80260.00000 0.806072
80270.00000 0.806606
80280.00000 0.807148
80290.00000 0.807692
80300.00000 0.808237
80310.00000 0.808786
80320.00000 0.809334
80330.00000 0.809881
80340.00000 0.810427
80350.00000 0.810978
80360.00000 0.811535
80370.00000 0.812096
80380.00000 0.812664
80390.00000 0.81324
80400.00000 0.813823
80410.00000 0.814413
80420.00000 0.815008
80430.00000 0.815608
80440.00000 0.816213
80450.00000 0.816823
80460.00000 0.817434
80470.00000 0.81805
80480.00000 0.818675
80490.00000 0.819312
80500.00000 0.819958
80510.00000 0.820617
80520.00000 0.821295
80530.00000 0.821988
80540.00000 0.822696
80550.00000 0.823416
80560.00000 0.824152
80570.00000 0.824898
80580.00000 0.825648
80590.00000 0.8264
80600.00000 0.827156
80610.00000 0.827913
80620.00000 0.828669
80630.00000 0.829423
80640.00000 0.83018
80650.00000 0.830942
80660.00000 0.831707
80670.00000 0.832477
80680.00000 0.833254
80690.00000 0.834041
80700.00000 0.834834
80710.00000 0.835627
80720.00000 0.836421
80730.00000 0.837217
80740.00000 0.838004
80750.00000 0.838776
80760.00000 0.839537
80770.00000 0.840287
80780.00000 0.841022
80790.00000 0.841738
80800.00000 0.842446
80810.00000 0.84316
80820.00000 0.843872
80830.00000 0.844587
80840.00000 0.845325
80850.00000 0.846091
80860.00000 0.84688
80870.00000 0.847694
80880.00000 0.84854
80890.00000 0.84942
80900.00000 0.850318
80910.00000 0.851221
80920.00000 0.852142
80930.00000 0.853065
80940.00000 0.853968
80950.00000 0.854853
80960.00000 0.855723
80970.00000 0.856566
80980.00000 0.857377
80990.00000 0.858159
81000.00000 0.858921
81010.00000 0.859666
81020.00000 0.860388
81030.00000 0.861098
81040.00000 0.86181
81050.00000 0.862518
81060.00000 0.863226
81070.00000 0.863943
81080.00000 0.864672
81090.00000 0.865409
81100.00000 0.866158
81110.00000 0.86692
81120.00000 0.867696
81130.00000 0.868482
81140.00000 0.869276
81150.00000 0.870081
81160.00000 0.870895
81170.00000 0.871711
81180.00000 0.87253
81190.00000 0.873352
81200.00000 0.874177
81210.00000 0.875002
81220.00000 0.875829
81230.00000 0.876657
81240.00000 0.877486
81250.00000 0.878317
81260.00000 0.879147
81270.00000 0.879974
81280.00000 0.880803
81290.00000 0.881627
81300.00000 0.882439
81310.00000 0.883238
81320.00000 0.884026
81330.00000 0.884795
81340.00000 0.885538
81350.00000 0.88626
81360.00000 0.88696
81370.00000 0.887635
81380.00000 0.888284
81390.00000 0.88891
81400.00000 0.889523
81410.00000 0.890119
81420.00000 0.890699
81430.00000 0.891274
81440.00000 0.891849
81450.00000 0.892418
81460.00000 0.892988
81470.00000 0.893565
81480.00000 0.894147
81490.00000 0.894734
81500.00000 0.895326
81510.00000 0.895924
81520.00000 0.896526
81530.00000 0.897131
81540.00000 0.897738
81550.00000 0.898348
81560.00000 0.898957
81570.00000 0.899561
81580.00000 0.900164
81590.00000 0.900761
81600.00000 0.901342
81610.00000 0.90191
81620.00000 0.902464
81630.00000 0.902997
81640.00000 0.903502
81650.00000 0.903985
81660.00000 0.904443
81670.00000 0.904874
81680.00000 0.905275
81690.00000 0.905652
81700.00000 0.906011
81710.00000 0.90635
81720.00000 0.906669
81730.00000 0.906977
81740.00000 0.907278
81750.00000 0.907568
81760.00000 0.907851
81770.00000 0.908133
81780.00000 0.908413
81790.00000 0.908689
81800.00000 0.908962
81810.00000 0.909233
81820.00000 0.909502
81830.00000 0.909768
81840.00000 0.910032
81850.00000 0.910295
81860.00000 0.910554
81870.00000 0.910806
81880.00000 0.911053
81890.00000 0.911294
81900.00000 0.911525
81910.00000 0.911747
81920.00000 0.911961
81930.00000 0.91216
81940.00000 0.912339
81950.00000 0.912502
81960.00000 0.912648
81970.00000 0.912778
81980.00000 0.912888
81990.00000 0.912982
82000.00000 0.913062
82010.00000 0.913127
82020.00000 0.913178
82030.00000 0.913216
82040.00000 0.913247
82050.00000 0.913269
82060.00000 0.913279
82070.00000 0.913271
82080.00000 0.913249
82090.00000 0.913211
82100.00000 0.913148
82110.00000 0.91306
82120.00000 0.912948
82130.00000 0.912809
82140.00000 0.912639
82150.00000 0.912436
82160.00000 0.912207
82170.00000 0.911961
82180.00000 0.911693
82190.00000 0.911406
82200.00000 0.91111
82210.00000 0.910814
82220.00000 0.910509
82230.00000 0.910204
82240.00000 0.90991
82250.00000 0.909624
82260.00000 0.909344
82270.00000 0.909068
82280.00000 0.908798
82290.00000 0.908534
82300.00000 0.908269
82310.00000 0.907998
82320.00000 0.907726
82330.00000 0.907447
82340.00000 0.907151
82350.00000 0.906841
82360.00000 0.906517
82370.00000 0.906173
82380.00000 0.905806
82390.00000 0.90542
82400.00000 0.905011
82410.00000 0.904578
82420.00000 0.904119
82430.00000 0.903637
82440.00000 0.903135
82450.00000 0.90261
82460.00000 0.902064
82470.00000 0.901501
82480.00000 0.900925
82490.00000 0.900332
82500.00000 0.899728
82510.00000 0.899119
82520.00000 0.898505
82530.00000 0.897884
82540.00000 0.897263
82550.00000 0.896645
82560.00000 0.896026
82570.00000 0.895408
82580.00000 0.89479
82590.00000 0.894173
82600.00000 0.893556
82610.00000 0.892933
82620.00000 0.892306
82630.00000 0.891674
82640.00000 0.891032
82650.00000 0.890374
82660.00000 0.889704
82670.00000 0.88902
82680.00000 0.888317
82690.00000 0.887595
82700.00000 0.886856
82710.00000 0.886101
82720.00000 0.88533
82730.00000 0.884541
82740.00000 0.883741
82750.00000 0.882938
82760.00000 0.882127
82770.00000 0.88131
82780.00000 0.880497
82790.00000 0.87969
82800.00000 0.878886
82810.00000 0.878085
82820.00000 0.877292
82830.00000 0.876507
82840.00000 0.875725
82850.00000 0.874937
82860.00000 0.874144
82870.00000 0.873347
82880.00000 0.872536
82890.00000 0.871704
82900.00000 0.870857
82910.00000 0.86999
82920.00000 0.8691
82930.00000 0.868184
82940.00000 0.867245
82950.00000 0.866289
82960.00000 0.865318
82970.00000 0.864327
82980.00000 0.863324
82990.00000 0.862315
83000.00000 0.861296
83010.00000 0.86027
83020.00000 0.859239
83030.00000 0.858207
83040.00000 0.857172
83050.00000 0.856132
83060.00000 0.855086
83070.00000 0.854035
83080.00000 0.852977
83090.00000 0.851913
83100.00000 0.850841
83110.00000 0.849762
83120.00000 0.848677
83130.00000 0.847588
83140.00000 0.846493
83150.00000 0.845396
83160.00000 0.844304
83170.00000 0.843218
83180.00000 0.842135
83190.00000 0.841062
83200.00000 0.840003
83210.00000 0.838957
83220.00000 0.837921
83230.00000 0.836895
83240.00000 0.835884
83250.00000 0.834883
83260.00000 0.833884
83270.00000 0.832883
83280.00000 0.831885
83290.00000 0.830883
83300.00000 0.829867
83310.00000 0.828838
83320.00000 0.827798
83330.00000 0.826744
83340.00000 0.825672
83350.00000 0.824583
83360.00000 0.823484
83370.00000 0.822381
83380.00000 0.82127
83390.00000 0.820153
83400.00000 0.819042
83410.00000 0.817943
83420.00000 0.81685
83430.00000 0.815765
83440.00000 0.814694
83450.00000 0.81364
83460.00000 0.812596
83470.00000 0.811556
83480.00000 0.810519
83490.00000 0.809488
83500.00000 0.808455
83510.00000 0.807409
83520.00000 0.806353
83530.00000 0.805288
83540.00000 0.80421
83550.00000 0.803114
83560.00000 0.802003
83570.00000 0.800883
83580.00000 0.799762
83590.00000 0.798632
83600.00000 0.797501
83610.00000 0.79638
83620.00000 0.795274
83630.00000 0.794177
83640.00000 0.793096
83650.00000 0.792037
83660.00000 0.791001
83670.00000 0.789984
83680.00000 0.788984
83690.00000 0.788001
83700.00000 0.787038
83710.00000 0.786086
83720.00000 0.785139
83730.00000 0.7842
83740.00000 0.783268
83750.00000 0.782335
83760.00000 0.781398
83770.00000 0.780461
83780.00000 0.779522
83790.00000 0.778579
83800.00000 0.777631
83810.00000 0.776681
83820.00000 0.775731
83830.00000 0.77478
83840.00000 0.773827
83850.00000 0.772877
83860.00000 0.771935
83870.00000 0.770997
83880.00000 0.770066
83890.00000 0.769148
83900.00000 0.768245
83910.00000 0.767352
83920.00000 0.766477
83930.00000 0.765625
83940.00000 0.764793
83950.00000 0.763983
83960.00000 0.763198
83970.00000 0.76244
83980.00000 0.761708
83990.00000 0.761001
84000.00000 0.760323
84010.00000 0.759675
84020.00000 0.759053
84030.00000 0.758455
84040.00000 0.757878
84050.00000 0.757328
84060.00000 0.756795
84070.00000 0.756267
84080.00000 0.755753
84090.00000 0.75525
84100.00000 0.754736
84110.00000 0.754198
84120.00000 0.753652
84130.00000 0.753083
84140.00000 0.75247
84150.00000 0.751812
84160.00000 0.751116
84170.00000 0.750375
84180.00000 0.749581
84190.00000 0.74873
84200.00000 0.747837
84210.00000 0.746918
84220.00000 0.745967
84230.00000 0.744982
84240.00000 0.74399
84250.00000 0.743017
84260.00000 0.742042
84270.00000 0.741079
84280.00000 0.74015
84290.00000 0.739267
84300.00000 0.738417
84310.00000 0.737603
84320.00000 0.736832
84330.00000 0.736107
84340.00000 0.735419
84350.00000 0.734758
84360.00000 0.73412
84370.00000 0.733512
84380.00000 0.732923
84390.00000 0.732338
84400.00000 0.731761
84410.00000 0.731194
84420.00000 0.730631
84430.00000 0.730067
84440.00000 0.729506
84450.00000 0.728948
84460.00000 0.728397
84470.00000 0.72785
84480.00000 0.727309
84490.00000 0.726778
84500.00000 0.72626
84510.00000 0.725751
84520.00000 0.725255
84530.00000 0.724775
84540.00000 0.724312
84550.00000 0.723863
84560.00000 0.72343
84570.00000 0.723014
84580.00000 0.722614
84590.00000 0.72223
84600.00000 0.72186
84610.00000 0.721503
84620.00000 0.721161
84630.00000 0.72083
84640.00000 0.720504
84650.00000 0.720186
84660.00000 0.719875
84670.00000 0.719567
84680.00000 0.719258
84690.00000 0.718952
84700.00000 0.718647
84710.00000 0.718341
84720.00000 0.718031
84730.00000 0.717719
84740.00000 0.717408
84750.00000 0.717102
84760.00000 0.716797
84770.00000 0.716497
84780.00000 0.716207
84790.00000 0.715928
84800.00000 0.715657
84810.00000 0.715401
84820.00000 0.715168
84830.00000 0.714956
84840.00000 0.714764
84850.00000 0.714591
84860.00000 0.714439
84870.00000 0.71431
84880.00000 0.714198
84890.00000 0.714098
84900.00000 0.714015
84910.00000 0.713948
84920.00000 0.713885
84930.00000 0.71382
84940.00000 0.713757
84950.00000 0.713695
84960.00000 0.713626
84970.00000 0.713548
84980.00000 0.713463
84990.00000 0.713372
85000.00000 0.713272
85010.00000 0.713161
85020.00000 0.713043
85030.00000 0.712924
85040.00000 0.712808
85050.00000 0.712689
85060.00000 0.712574
85070.00000 0.712472
85080.00000 0.712379
85090.00000 0.712296
85100.00000 0.712228
85110.00000 0.712183
85120.00000 0.712158
85130.00000 0.712151
85140.00000 0.712167
85150.00000 0.712205
85160.00000 0.712266
85170.00000 0.712348
85180.00000 0.712449
85190.00000 0.712574
85200.00000 0.712719
85210.00000 0.712881
85220.00000 0.713055
85230.00000 0.713246
85240.00000 0.71345
85250.00000 0.713662
85260.00000 0.713881
85270.00000 0.714109
85280.00000 0.714343
85290.00000 0.714579
85300.00000 0.714818
85310.00000 0.71506
85320.00000 0.715304
85330.00000 0.715551
85340.00000 0.7158
85350.00000 0.716052
85360.00000 0.716309
85370.00000 0.71657
85380.00000 0.716835
85390.00000 0.717106
85400.00000 0.717383
85410.00000 0.717666
85420.00000 0.717956
85430.00000 0.71825
85440.00000 0.71855
85450.00000 0.718857
85460.00000 0.719168
85470.00000 0.719483
85480.00000 0.719802
85490.00000 0.720124
85500.00000 0.720452
85510.00000 0.720784
85520.00000 0.721119
85530.00000 0.72146
85540.00000 0.721808
85550.00000 0.722163
85560.00000 0.722524
85570.00000 0.722895
85580.00000 0.723278
85590.00000 0.723674
85600.00000 0.724082
85610.00000 0.724503
85620.00000 0.72494
85630.00000 0.725392
85640.00000 0.725858
85650.00000 0.726342
85660.00000 0.726843
85670.00000 0.727362
85680.00000 0.727897
85690.00000 0.728447
85700.00000 0.729012
85710.00000 0.729593
85720.00000 0.730186
85730.00000 0.730789
85740.00000 0.731406
85750.00000 0.732033
85760.00000 0.732663
85770.00000 0.733293
85780.00000 0.733927
85790.00000 0.734562
85800.00000 0.735191
85810.00000 0.735815
85820.00000 0.736436
85830.00000 0.73705
85840.00000 0.737655
85850.00000 0.738249
85860.00000 0.738835
85870.00000 0.739418
85880.00000 0.740001
85890.00000 0.740577
85900.00000 0.741155
85910.00000 0.741744
85920.00000 0.742342
85930.00000 0.742947
85940.00000 0.743567
85950.00000 0.74421
85960.00000 0.744877
85970.00000 0.745563
85980.00000 0.746268
85990.00000 0.746993
86000.00000 0.747741
86010.00000 0.748506
86020.00000 0.74928
86030.00000 0.750062
86040.00000 0.750856
86050.00000 0.751654
86060.00000 0.752447
86070.00000 0.753237
86080.00000 0.754025
86090.00000 0.754812
86100.00000 0.755599
86110.00000 0.756381
86120.00000 0.757163
86130.00000 0.757953
86140.00000 0.758752
86150.00000 0.759555
86160.00000 0.760369
86170.00000 0.761199
86180.00000 0.762046
86190.00000 0.762908
86200.00000 0.763783
86210.00000 0.764672
86220.00000 0.765576
86230.00000 0.766492
86240.00000 0.767417
86250.00000 0.768346
86260.00000 0.769283
86270.00000 0.770225
86280.00000 0.77117
86290.00000 0.772115
86300.00000 0.773061
86310.00000 0.774011
86320.00000 0.774966
86330.00000 0.775923
86340.00000 0.776884
86350.00000 0.777852
86360.00000 0.778828
86370.00000 0.779812
86380.00000 0.780803
86390.00000 0.781798
86400.00000 0.782798
86410.00000 0.783807
86420.00000 0.784816
86430.00000 0.785821
86440.00000 0.786821
86450.00000 0.78782
86460.00000 0.78881
86470.00000 0.789786
86480.00000 0.790749
86490.00000 0.791699
86500.00000 0.792639
86510.00000 0.793566
86520.00000 0.794478
86530.00000 0.79538
86540.00000 0.796283
86550.00000 0.797189
86560.00000 0.79809
86570.00000 0.798998
86580.00000 0.799926
86590.00000 0.800875
86600.00000 0.801838
86610.00000 0.802823
86620.00000 0.803838
86630.00000 0.804882
86640.00000 0.805952
86650.00000 0.807044
86660.00000 0.808157
86670.00000 0.809297
86680.00000 0.810455
86690.00000 0.811619
86700.00000 0.812787
86710.00000 0.813965
86720.00000 0.815145
86730.00000 0.816315
86740.00000 0.817474
86750.00000 0.818628
86760.00000 0.819769
86770.00000 0.820891
86780.00000 0.821997
86790.00000 0.823086
86800.00000 0.82416
86810.00000 0.825217
86820.00000 0.826255
86830.00000 0.827278
86840.00000 0.828292
86850.00000 0.8293
86860.00000 0.830294
86870.00000 0.831284
86880.00000 0.832281
86890.00000 0.833285
86900.00000 0.834291
86910.00000 0.835308
86920.00000 0.836348
86930.00000 0.837409
86940.00000 0.838489
86950.00000 0.839588
86960.00000 0.84071
86970.00000 0.841859
86980.00000 0.843028
86990.00000 0.844204
87000.00000 0.845384
87010.00000 0.846578
87020.00000 0.847773
87030.00000 0.848952
87040.00000 0.850106
87050.00000 0.851248
87060.00000 0.852368
87070.00000 0.853457
87080.00000 0.85451
87090.00000 0.855532
87100.00000 0.85653
87110.00000 0.857509
87120.00000 0.85846
87130.00000 0.85939
87140.00000 0.860314
87150.00000 0.861244
87160.00000 0.862171
87170.00000 0.863099
87180.00000 0.864039
87190.00000 0.865
87200.00000 0.865977
87210.00000 0.866967
87220.00000 0.867971
87230.00000 0.86899
87240.00000 0.870027
87250.00000 0.871071
87260.00000 0.872114
87270.00000 0.873158
87280.00000 0.874205
87290.00000 0.875245
87300.00000 0.876269
87310.00000 0.87728
87320.00000 0.878279
87330.00000 0.879263
87340.00000 0.88023
87350.00000 0.881178
87360.00000 0.88211
87370.00000 0.883032
87380.00000 0.883945
87390.00000 0.884845
87400.00000 0.885736
87410.00000 0.886622
87420.00000 0.887504
87430.00000 0.888382
87440.00000 0.889254
87450.00000 0.890119
87460.00000 0.890977
87470.00000 0.891829
87480.00000 0.892674
87490.00000 0.893509
87500.00000 0.894334
87510.00000 0.89515
87520.00000 0.89596
87530.00000 0.896768
87540.00000 0.897568
87550.00000 0.898365
87560.00000 0.899165
87570.00000 0.899976
87580.00000 0.900792
87590.00000 0.901614
87600.00000 0.902445
87610.00000 0.903288
87620.00000 0.904143
87630.00000 0.905005
87640.00000 0.90587
87650.00000 0.906736
87660.00000 0.907608
87670.00000 0.908479
87680.00000 0.90934
87690.00000 0.91019
87700.00000 0.911032
87710.00000 0.911867
87720.00000 0.912694
87730.00000 0.913511
87740.00000 0.91432
87750.00000 0.915125
87760.00000 0.915932
87770.00000 0.916741
87780.00000 0.917548
87790.00000 0.918356
87800.00000 0.919166
87810.00000 0.919984
87820.00000 0.920802
87830.00000 0.921608
87840.00000 0.922395
87850.00000 0.923173
87860.00000 0.923935
87870.00000 0.924668
87880.00000 0.925364
87890.00000 0.926031
87900.00000 0.926668
87910.00000 0.927272
87920.00000 0.927839
87930.00000 0.928369
87940.00000 0.928871
87950.00000 0.929356
87960.00000 0.929824
87970.00000 0.930269
87980.00000 0.9307
87990.00000 0.931125
88000.00000 0.931546
88010.00000 0.931957
88020.00000 0.932362
88030.00000 0.932761
88040.00000 0.933157
88050.00000 0.933546
88060.00000 0.933926
88070.00000 0.934291
88080.00000 0.934644
88090.00000 0.934985
88100.00000 0.935314
88110.00000 0.935633
88120.00000 0.935938
88130.00000 0.936233
88140.00000 0.936523
88150.00000 0.936812
88160.00000 0.937095
88170.00000 0.937374
88180.00000 0.937655
88190.00000 0.937941
88200.00000 0.938231
88210.00000 0.938522
88220.00000 0.93881
88230.00000 0.939097
88240.00000 0.939384
88250.00000 0.939667
88260.00000 0.93994
88270.00000 0.940204
88280.00000 0.94046
88290.00000 0.940706
88300.00000 0.94094
88310.00000 0.941162
88320.00000 0.941371
88330.00000 0.94157
88340.00000 0.941759
88350.00000 0.94194
88360.00000 0.94211
88370.00000 0.942271
88380.00000 0.942424
88390.00000 0.942569
88400.00000 0.942705
88410.00000 0.942833
88420.00000 0.942951
88430.00000 0.94306
88440.00000 0.94316
88450.00000 0.943249
88460.00000 0.943329
88470.00000 0.943398
88480.00000 0.943457
88490.00000 0.943506
88500.00000 0.943547
88510.00000 0.943578
88520.00000 0.943601
88530.00000 0.943616
88540.00000 0.943626
88550.00000 0.943629
88560.00000 0.943625
88570.00000 0.943616
88580.00000 0.943601
88590.00000 0.94358
88600.00000 0.943553
88610.00000 0.943519
88620.00000 0.943475
88630.00000 0.943426
88640.00000 0.943367
88650.00000 0.943296
88660.00000 0.943212
88670.00000 0.943117
88680.00000 0.94301
88690.00000 0.942893
88700.00000 0.942764
88710.00000 0.942623
88720.00000 0.942472
88730.00000 0.942312
88740.00000 0.942144
88750.00000 0.941966
88760.00000 0.94178
88770.00000 0.941588
88780.00000 0.941391
88790.00000 0.941187
88800.00000 0.940976
88810.00000 0.940755
88820.00000 0.940524
88830.00000 0.940285
88840.00000 0.940035
88850.00000 0.939774
88860.00000 0.939502
88870.00000 0.939218
88880.00000 0.938924
88890.00000 0.938621
88900.00000 0.938307
88910.00000 0.937981
88920.00000 0.93765
88930.00000 0.937319
88940.00000 0.936984
88950.00000 0.936646
88960.00000 0.936308
88970.00000 0.935974
88980.00000 0.93564
88990.00000 0.935309
89000.00000 0.93498
89010.00000 0.934656
89020.00000 0.934336
89030.00000 0.93402
89040.00000 0.933708
89050.00000 0.933402
89060.00000 0.933097
89070.00000 0.932797
89080.00000 0.932507
89090.00000 0.932232
89100.00000 0.931968
89110.00000 0.931716
89120.00000 0.931479
89130.00000 0.931259
89140.00000 0.931062
89150.00000 0.93088
89160.00000 0.930705
89170.00000 0.930533
89180.00000 0.930379
89190.00000 0.930229
89200.00000 0.930061
89210.00000 0.929856
89220.00000 0.929636
89230.00000 0.92939
89240.00000 0.929094
89250.00000 0.92873
89260.00000 0.928308
89270.00000 0.927832
89280.00000 0.927296
89290.00000 0.926696
89300.00000 0.926021
89310.00000 0.925288
89320.00000 0.924521
89330.00000 0.923735
89340.00000 0.922904
89350.00000 0.922047
89360.00000 0.921196
89370.00000 0.920378
89380.00000 0.919567
89390.00000 0.918772
89400.00000 0.91801
89410.00000 0.917295
89420.00000 0.916623
89430.00000 0.915987
89440.00000 0.915379
89450.00000 0.914794
89460.00000 0.914246
89470.00000 0.913723
89480.00000 0.913204
89490.00000 0.912677
89500.00000 0.912155
89510.00000 0.911634
89520.00000 0.9111
89530.00000 0.910543
89540.00000 0.909968
89550.00000 0.909378
89560.00000 0.908773
89570.00000 0.908151
89580.00000 0.907509
89590.00000 0.906852
89600.00000 0.906187
89610.00000 0.90552
89620.00000 0.904842
89630.00000 0.904159
89640.00000 0.903477
89650.00000 0.902803
89660.00000 0.90213
89670.00000 0.901461
89680.00000 0.900801
89690.00000 0.900151
89700.00000 0.899512
89710.00000 0.898882
89720.00000 0.898261
89730.00000 0.89765
89740.00000 0.897051
89750.00000 0.896461
89760.00000 0.895877
89770.00000 0.895298
89780.00000 0.894726
89790.00000 0.894161
89800.00000 0.893596
89810.00000 0.893029
89820.00000 0.892462
89830.00000 0.891894
89840.00000 0.891325
89850.00000 0.890752
89860.00000 0.890175
89870.00000 0.889595
89880.00000 0.889015
89890.00000 0.888437
89900.00000 0.88786
89910.00000 0.887283
89920.00000 0.88671
89930.00000 0.886144
89940.00000 0.885585
89950.00000 0.885032
89960.00000 0.884484
89970.00000 0.883941
89980.00000 0.883406
89990.00000 0.882877
90000.00000 0.882348
90010.00000 0.881816
90020.00000 0.881281
90030.00000 0.880745
90040.00000 0.880205
90050.00000 0.879658
90060.00000 0.879102
90070.00000 0.878539
90080.00000 0.877973
90090.00000 0.877408
90100.00000 0.87684
90110.00000 0.876268
90120.00000 0.875702
90130.00000 0.875151
90140.00000 0.874615
90150.00000 0.874088
90160.00000 0.873577
90170.00000 0.873088
90180.00000 0.872624
90190.00000 0.872183
90200.00000 0.87176
90210.00000 0.871354
90220.00000 0.870967
90230.00000 0.870602
90240.00000 0.870249
90250.00000 0.869899
90260.00000 0.869548
90270.00000 0.869205
90280.00000 0.868863
90290.00000 0.868511
90300.00000 0.868146
90310.00000 0.867772
90320.00000 0.86739
90330.00000 0.866997
90340.00000 0.866591
90350.00000 0.866171
90360.00000 0.865741
90370.00000 0.865307
90380.00000 0.86487
90390.00000 0.864427
90400.00000 0.863981
90410.00000 0.863536
90420.00000 0.863097
90430.00000 0.862661
90440.00000 0.862228
90450.00000 0.861799
90460.00000 0.861375
90470.00000 0.860958
90480.00000 0.860546
90490.00000 0.860136
90500.00000 0.859726
90510.00000 0.859319
90520.00000 0.858914
90530.00000 0.858508
90540.00000 0.8581
90550.00000 0.857689
90560.00000 0.857277
90570.00000 0.856862
90580.00000 0.856444
90590.00000 0.856022
90600.00000 0.855597
90610.00000 0.85517
90620.00000 0.854743
90630.00000 0.854316
90640.00000 0.853887
90650.00000 0.85346
90660.00000 0.853038
90670.00000 0.852623
90680.00000 0.852211
90690.00000 0.851805
90700.00000 0.851409
90710.00000 0.851024
90720.00000 0.850648
90730.00000 0.850281
90740.00000 0.849925
90750.00000 0.849581
90760.00000 0.849247
90770.00000 0.848923
90780.00000 0.84861
90790.00000 0.848307
90800.00000 0.848013
90810.00000 0.84773
90820.00000 0.847458
90830.00000 0.847198
90840.00000 0.84695
90850.00000 0.846714
90860.00000 0.846491
90870.00000 0.846284
90880.00000 0.846091
90890.00000 0.845913
90900.00000 0.845748
90910.00000 0.845595
90920.00000 0.845457
90930.00000 0.845333
90940.00000 0.845217
90950.00000 0.845106
90960.00000 0.844999
90970.00000 0.8449
90980.00000 0.844802
90990.00000 0.844702
91000.00000 0.844596
91010.00000 0.84449
91020.00000 0.84438
91030.00000 0.844264
91040.00000 0.844139
91050.00000 0.844006
91060.00000 0.843867
91070.00000 0.843726
91080.00000 0.843583
91090.00000 0.843435
91100.00000 0.843285
91110.00000 0.843138
91120.00000 0.842997
91130.00000 0.842858
91140.00000 0.842722
91150.00000 0.842594
91160.00000 0.842478
91170.00000 0.842372
91180.00000 0.842276
91190.00000 0.842189
91200.00000 0.84211
91210.00000 0.842042
91220.00000 0.841982
91230.00000 0.84193
91240.00000 0.841884
91250.00000 0.841843
91260.00000 0.84181
91270.00000 0.841781
91280.00000 0.841756
91290.00000 0.841732
91300.00000 0.841711
91310.00000 0.841694
91320.00000 0.841682
91330.00000 0.841675
91340.00000 0.841673
91350.00000 0.841675
91360.00000 0.841683
91370.00000 0.841698
91380.00000 0.841718
91390.00000 0.841745
91400.00000 0.841776
91410.00000 0.841812
91420.00000 0.841854
91430.00000 0.8419
91440.00000 0.84195
91450.00000 0.841998
91460.00000 0.842047
91470.00000 0.842097
91480.00000 0.842147
91490.00000 0.842195
91500.00000 0.842241
91510.00000 0.842285
91520.00000 0.842329
91530.00000 0.842374
91540.00000 0.842421
91550.00000 0.842467
91560.00000 0.842516
91570.00000 0.842571
91580.00000 0.842637
91590.00000 0.842708
91600.00000 0.842787
91610.00000 0.842878
91620.00000 0.842984
91630.00000 0.843103
91640.00000 0.843235
91650.00000 0.843381
91660.00000 0.843541
91670.00000 0.843717
91680.00000 0.843908
91690.00000 0.844111
91700.00000 0.844324
91710.00000 0.844548
91720.00000 0.844784
91730.00000 0.845029
91740.00000 0.84528
91750.00000 0.845534
91760.00000 0.845795
91770.00000 0.846061
91780.00000 0.846327
91790.00000 0.846592
91800.00000 0.846857
91810.00000 0.847124
91820.00000 0.847388
91830.00000 0.847649
91840.00000 0.847907
91850.00000 0.848163
91860.00000 0.848417
91870.00000 0.84867
91880.00000 0.848921
91890.00000 0.84917
91900.00000 0.849419
91910.00000 0.849669
91920.00000 0.84992
91930.00000 0.850171
91940.00000 0.850423
91950.00000 0.85068
91960.00000 0.850942
91970.00000 0.851208
91980.00000 0.851477
91990.00000 0.851752
92000.00000 0.852035
92010.00000 0.852324
92020.00000 0.852619
92030.00000 0.852921
92040.00000 0.853231
92050.00000 0.853551
92060.00000 0.853878
92070.00000 0.854211
92080.00000 0.854548
92090.00000 0.85489
92100.00000 0.855238
92110.00000 0.855588
92120.00000 0.855936
92130.00000 0.85628
92140.00000 0.856624
92150.00000 0.856965
92160.00000 0.857299
92170.00000 0.857622
92180.00000 0.857936
92190.00000 0.858243
92200.00000 0.858541
92210.00000 0.858833
92220.00000 0.859115
92230.00000 0.859389
92240.00000 0.859658
92250.00000 0.859926
92260.00000 0.860193
92270.00000 0.860455
92280.00000 0.860717
92290.00000 0.860985
92300.00000 0.86126
92310.00000 0.861539
92320.00000 0.861824
92330.00000 0.862118
92340.00000 0.862424
92350.00000 0.862738
92360.00000 0.863061
92370.00000 0.863397
92380.00000 0.863745
92390.00000 0.864107
92400.00000 0.864481
92410.00000 0.864869
92420.00000 0.86527
92430.00000 0.865687
92440.00000 0.866117
92450.00000 0.866562
92460.00000 0.867018
92470.00000 0.867488
92480.00000 0.867974
92490.00000 0.868471
92500.00000 0.868975
92510.00000 0.869483
92520.00000 0.87
92530.00000 0.870524
92540.00000 0.871047
92550.00000 0.871563
92560.00000 0.872074
92570.00000 0.872583
92580.00000 0.873085
92590.00000 0.873575
92600.00000 0.87405
92610.00000 0.874513
92620.00000 0.874966
92630.00000 0.875409
92640.00000 0.875843
92650.00000 0.876263
92660.00000 0.876675
92670.00000 0.877083
92680.00000 0.877496
92690.00000 0.877907
92700.00000 0.878316
92710.00000 0.87873
92720.00000 0.879155
92730.00000 0.879592
92740.00000 0.880038
92750.00000 0.880493
92760.00000 0.880959
92770.00000 0.881438
92780.00000 0.88193
92790.00000 0.882432
92800.00000 0.882942
92810.00000 0.883457
92820.00000 0.88398
92830.00000 0.88451
92840.00000 0.885045
92850.00000 0.88558
92860.00000 0.886115
92870.00000 0.886653
92880.00000 0.887193
92890.00000 0.887733
92900.00000 0.888275
92910.00000 0.888818
92920.00000 0.889362
92930.00000 0.889908
92940.00000 0.890458
92950.00000 0.891011
92960.00000 0.891567
92970.00000 0.892125
92980.00000 0.892683
92990.00000 0.893245
93000.00000 0.893809
93010.00000 0.894373
93020.00000 0.89493
93030.00000 0.895482
93040.00000 0.896031
93050.00000 0.896575
93060.00000 0.897108
93070.00000 0.897627
93080.00000 0.898134
93090.00000 0.89863
93100.00000 0.899113
93110.00000 0.899581
93120.00000 0.900032
93130.00000 0.900468
93140.00000 0.90089
93150.00000 0.9013
93160.00000 0.901698
93170.00000 0.90208
93180.00000 0.902451
93190.00000 0.902815
93200.00000 0.903174
93210.00000 0.903523
93220.00000 0.903864
93230.00000 0.904204
93240.00000 0.904549
93250.00000 0.904897
93260.00000 0.905243
93270.00000 0.905595
93280.00000 0.90596
93290.00000 0.906341
93300.00000 0.906732
93310.00000 0.907136
93320.00000 0.907558
93330.00000 0.908
93340.00000 0.908463
93350.00000 0.908945
93360.00000 0.909443
93370.00000 0.909954
93380.00000 0.910483
93390.00000 0.911029
93400.00000 0.911587
93410.00000 0.912147
93420.00000 0.912707
93430.00000 0.913275
93440.00000 0.913845
93450.00000 0.91441
93460.00000 0.91496
93470.00000 0.915502
93480.00000 0.916036
93490.00000 0.916558
93500.00000 0.917062
93510.00000 0.917548
93520.00000 0.918019
93530.00000 0.918473
93540.00000 0.91891
93550.00000 0.919328
93560.00000 0.919726
93570.00000 0.920107
93580.00000 0.920471
93590.00000 0.920819
93600.00000 0.921149
93610.00000 0.921462
93620.00000 0.921761
93630.00000 0.922048
93640.00000 0.922322
93650.00000 0.92258
93660.00000 0.922827
93670.00000 0.923069
93680.00000 0.92331
93690.00000 0.923543
93700.00000 0.923772
93710.00000 0.924003
93720.00000 0.924243
93730.00000 0.924493
93740.00000 0.924746
93750.00000 0.925008
93760.00000 0.925284
93770.00000 0.925577
93780.00000 0.925887
93790.00000 0.926209
93800.00000 0.926544
93810.00000 0.926888
93820.00000 0.927248
93830.00000 0.92762
93840.00000 0.927999
93850.00000 0.928378
93860.00000 0.928755
93870.00000 0.929138
93880.00000 0.92952
93890.00000 0.929895
93900.00000 0.930256
93910.00000 0.930608
93920.00000 0.930951
93930.00000 0.931283
93940.00000 0.931602
93950.00000 0.931905
93960.00000 0.932195
93970.00000 0.932473
93980.00000 0.932742
93990.00000 0.933002
94000.00000 0.933251
94010.00000 0.93349
94020.00000 0.933724
94030.00000 0.933957
94040.00000 0.934188
94050.00000 0.934414
94060.00000 0.934639
94070.00000 0.934864
94080.00000 0.935091
94090.00000 0.935319
94100.00000 0.935547
94110.00000 0.935774
94120.00000 0.935999
94130.00000 0.936224
94140.00000 0.936449
94150.00000 0.936669
94160.00000 0.936884
94170.00000 0.937093
94180.00000 0.937297
94190.00000 0.937495
94200.00000 0.937687
94210.00000 0.937869
94220.00000 0.938043
94230.00000 0.93821
94240.00000 0.938369
94250.00000 0.938522
94260.00000 0.938668
94270.00000 0.938807
94280.00000 0.938939
94290.00000 0.939066
94300.00000 0.939188
94310.00000 0.939304
94320.00000 0.939415
94330.00000 0.939521
94340.00000 0.939622
94350.00000 0.939718
94360.00000 0.93981
94370.00000 0.939896
94380.00000 0.939975
94390.00000 0.940046
94400.00000 0.94011
94410.00000 0.940168
94420.00000 0.940217
94430.00000 0.940256
94440.00000 0.940286
94450.00000 0.940307
94460.00000 0.940319
94470.00000 0.940321
94480.00000 0.940312
94490.00000 0.940292
94500.00000 0.940262
94510.00000 0.940224
94520.00000 0.94018
94530.00000 0.940128
94540.00000 0.940069
94550.00000 0.940003
94560.00000 0.939935
94570.00000 0.939864
94580.00000 0.939789
94590.00000 0.93971
94600.00000 0.939629
94610.00000 0.939548
94620.00000 0.939467
94630.00000 0.939384
94640.00000 0.939299
94650.00000 0.939212
94660.00000 0.939122
94670.00000 0.939029
94680.00000 0.938934
94690.00000 0.938837
94700.00000 0.93874
94710.00000 0.93864
94720.00000 0.938539
94730.00000 0.938437
94740.00000 0.938338
94750.00000 0.93824
94760.00000 0.938143
94770.00000 0.938048
94780.00000 0.937954
94790.00000 0.937864
94800.00000 0.937779
94810.00000 0.937698
94820.00000 0.937615
94830.00000 0.937527
94840.00000 0.937435
94850.00000 0.937343
94860.00000 0.937245
94870.00000 0.937136
94880.00000 0.937011
94890.00000 0.936874
94900.00000 0.936726
94910.00000 0.936563
94920.00000 0.936383
94930.00000 0.936183
94940.00000 0.935964
94950.00000 0.93573
94960.00000 0.935485
94970.00000 0.935232
94980.00000 0.934964
94990.00000 0.934683
95000.00000 0.934398
95010.00000 0.934116
95020.00000 0.933836
95030.00000 0.933552
95040.00000 0.933271
95050.00000 0.932997
95060.00000 0.932737
95070.00000 0.932487
95080.00000 0.932246
95090.00000 0.932015
95100.00000 0.931796
95110.00000 0.931589
95120.00000 0.931394
95130.00000 0.93121
95140.00000 0.931034
95150.00000 0.930864
95160.00000 0.930703
95170.00000 0.930551
95180.00000 0.930404
95190.00000 0.930259
95200.00000 0.930115
95210.00000 0.929976
95220.00000 0.92984
95230.00000 0.929702
95240.00000 0.929559
95250.00000 0.929416
95260.00000 0.929272
95270.00000 0.929123
95280.00000 0.928964
95290.00000 0.928794
95300.00000 0.928617
95310.00000 0.928432
95320.00000 0.928231
95330.00000 0.928012
95340.00000 0.927775
95350.00000 0.927523
95360.00000 0.927253
95370.00000 0.926965
95380.00000 0.926655
95390.00000 0.926323
95400.00000 0.925972
95410.00000 0.925607
95420.00000 0.925232
95430.00000 0.924841
95440.00000 0.924435
95450.00000 0.92402
95460.00000 0.923607
95470.00000 0.923202
95480.00000 0.922795
95490.00000 0.922389
95500.00000 0.921991
95510.00000 0.921607
95520.00000 0.921241
95530.00000 0.920887
95540.00000 0.920545
95550.00000 0.920213
95560.00000 0.919891
95570.00000 0.919586
95580.00000 0.919292
95590.00000 0.919001
95600.00000 0.918705
95610.00000 0.918402
95620.00000 0.918101
95630.00000 0.917796
95640.00000 0.917478
95650.00000 0.917142
95660.00000 0.916787
95670.00000 0.916417
95680.00000 0.916034
95690.00000 0.915638
95700.00000 0.915229
95710.00000 0.914799
95720.00000 0.914358
95730.00000 0.913915
95740.00000 0.913477
95750.00000 0.913041
95760.00000 0.912601
95770.00000 0.912167
95780.00000 0.911747
95790.00000 0.911348
95800.00000 0.910964
95810.00000 0.910594
95820.00000 0.910238
95830.00000 0.909896
95840.00000 0.909573
95850.00000 0.909269
95860.00000 0.908977
95870.00000 0.908689
95880.00000 0.908399
95890.00000 0.908116
95900.00000 0.907839
95910.00000 0.907558
95920.00000 0.907267
95930.00000 0.906961
95940.00000 0.906647
95950.00000 0.906324
95960.00000 0.905988
95970.00000 0.905636
95980.00000 0.905269
95990.00000 0.904887
96000.00000 0.904491
96010.00000 0.904084
96020.00000 0.903667
96030.00000 0.903237
96040.00000 0.902795
96050.00000 0.902342
96060.00000 0.901878
96070.00000 0.901404
96080.00000 0.900921
96090.00000 0.900426
96100.00000 0.899917
96110.00000 0.899392
96120.00000 0.898852
96130.00000 0.898297
96140.00000 0.897728
96150.00000 0.897144
96160.00000 0.896543
96170.00000 0.895922
96180.00000 0.895286
96190.00000 0.894643
96200.00000 0.893999
96210.00000 0.893348
96220.00000 0.892687
96230.00000 0.892027
96240.00000 0.89138
96250.00000 0.890756
96260.00000 0.890144
96270.00000 0.889545
96280.00000 0.888966
96290.00000 0.888416
96300.00000 0.8879
96310.00000 0.887412
96320.00000 0.88695
96330.00000 0.886512
96340.00000 0.886097
96350.00000 0.88571
96360.00000 0.885349
96370.00000 0.885008
96380.00000 0.88468
96390.00000 0.884358
96400.00000 0.884049
96410.00000 0.883753
96420.00000 0.883467
96430.00000 0.883186
96440.00000 0.882909
96450.00000 0.882635
96460.00000 0.882369
96470.00000 0.882116
96480.00000 0.881878
96490.00000 0.881651
96500.00000 0.881436
96510.00000 0.881237
96520.00000 0.881057
96530.00000 0.880901
96540.00000 0.880768
96550.00000 0.880655
96560.00000 0.880559
96570.00000 0.880474
96580.00000 0.880405
96590.00000 0.880358
96600.00000 0.880321
96610.00000 0.880282
96620.00000 0.880229
96630.00000 0.880174
96640.00000 0.880118
96650.00000 0.880049
96660.00000 0.879954
96670.00000 0.879824
96680.00000 0.879672
96690.00000 0.879494
96700.00000 0.879288
96710.00000 0.879048
96720.00000 0.878772
96730.00000 0.87846
96740.00000 0.878118
96750.00000 0.87775
96760.00000 0.877362
96770.00000 0.876945
96780.00000 0.876499
96790.00000 0.876036
96800.00000 0.875563
96810.00000 0.875088
96820.00000 0.874597
96830.00000 0.874096
96840.00000 0.873594
96850.00000 0.873103
96860.00000 0.872624
96870.00000 0.872146
96880.00000 0.871677
96890.00000 0.871223
96900.00000 0.870792
96910.00000 0.870382
96920.00000 0.869988
96930.00000 0.869615
96940.00000 0.869265
96950.00000 0.868941
96960.00000 0.868644
96970.00000 0.868372
96980.00000 0.86812
96990.00000 0.867886
97000.00000 0.867671
97010.00000 0.86748
97020.00000 0.867307
97030.00000 0.867144
97040.00000 0.866984
97050.00000 0.866831
97060.00000 0.86669
97070.00000 0.866552
97080.00000 0.866411
97090.00000 0.866261
97100.00000 0.866105
97110.00000 0.865945
97120.00000 0.86578
97130.00000 0.865607
97140.00000 0.865425
97150.00000 0.865231
97160.00000 0.865031
97170.00000 0.864826
97180.00000 0.864622
97190.00000 0.864416
97200.00000 0.864205
97210.00000 0.863993
97220.00000 0.863786
97230.00000 0.863587
97240.00000 0.863396
97250.00000 0.86321
97260.00000 0.86303
97270.00000 0.862856
97280.00000 0.86269
97290.00000 0.862533
97300.00000 0.862384
97310.00000 0.862239
97320.00000 0.862093
97330.00000 0.861947
97340.00000 0.861805
97350.00000 0.861663
97360.00000 0.861518
97370.00000 0.861365
97380.00000 0.861204
97390.00000 0.861037
97400.00000 0.860864
97410.00000 0.860683
97420.00000 0.860492
97430.00000 0.86029
97440.00000 0.86008
97450.00000 0.859862
97460.00000 0.859637
97470.00000 0.859406
97480.00000 0.859167
97490.00000 0.85892
97500.00000 0.85867
97510.00000 0.858419
97520.00000 0.85817
97530.00000 0.857916
97540.00000 0.857662
97550.00000 0.857411
97560.00000 0.857168
97570.00000 0.856932
97580.00000 0.856699
97590.00000 0.856473
97600.00000 0.856258
97610.00000 0.856057
97620.00000 0.855869
97630.00000 0.855693
97640.00000 0.855529
97650.00000 0.855378
97660.00000 0.855241
97670.00000 0.85512
97680.00000 0.855012
97690.00000 0.854916
97700.00000 0.854827
97710.00000 0.854746
97720.00000 0.854678
97730.00000 0.854618
97740.00000 0.854562
97750.00000 0.854505
97760.00000 0.854447
97770.00000 0.854393
97780.00000 0.854339
97790.00000 0.854282
97800.00000 0.854219
97810.00000 0.85415
97820.00000 0.854078
97830.00000 0.854002
97840.00000 0.853923
97850.00000 0.853842
97860.00000 0.853755
97870.00000 0.853665
97880.00000 0.853574
97890.00000 0.853486
97900.00000 0.853404
97910.00000 0.853322
97920.00000 0.853242
97930.00000 0.853168
97940.00000 0.853103
97950.00000 0.85305
97960.00000 0.853004
97970.00000 0.852967
97980.00000 0.852939
97990.00000 0.852923
98000.00000 0.852918
98010.00000 0.852924
98020.00000 0.85294
98030.00000 0.852964
98040.00000 0.852996
98050.00000 0.853038
98060.00000 0.853089
98070.00000 0.853148
98080.00000 0.853209
98090.00000 0.85327
98100.00000 0.853336
98110.00000 0.853405
98120.00000 0.853474
98130.00000 0.85354
98140.00000 0.8536
98150.00000 0.853658
98160.00000 0.853713
98170.00000 0.853762
98180.00000 0.853804
98190.00000 0.853837
98200.00000 0.853861
98210.00000 0.853878
98220.00000 0.85389
98230.00000 0.853897
98240.00000 0.853898
98250.00000 0.853891
98260.00000 0.853881
98270.00000 0.853869
98280.00000 0.853858
98290.00000 0.853848
98300.00000 0.853835
98310.00000 0.853823
98320.00000 0.853817
98330.00000 0.853818
98340.00000 0.853826
98350.00000 0.853839
98360.00000 0.853859
98370.00000 0.853885
98380.00000 0.853918
98390.00000 0.85396
98400.00000 0.854008
98410.00000 0.854063
98420.00000 0.854123
98430.00000 0.854187
98440.00000 0.854258
98450.00000 0.854335
98460.00000 0.854415
98470.00000 0.854496
98480.00000 0.854578
98490.00000 0.854662
98500.00000 0.854748
98510.00000 0.854836
98520.00000 0.854926
98530.00000 0.855016
98540.00000 0.855108
98550.00000 0.855201
98560.00000 0.855297
98570.00000 0.855397
98580.00000 0.855501
98590.00000 0.855607
98600.00000 0.855717
98610.00000 0.855832
98620.00000 0.855956
98630.00000 0.856086
98640.00000 0.856222
98650.00000 0.856365
98660.00000 0.856515
98670.00000 0.856673
98680.00000 0.856839
98690.00000 0.857012
98700.00000 0.857192
98710.00000 0.857379
98720.00000 0.857571
98730.00000 0.857771
98740.00000 0.857978
98750.00000 0.858191
98760.00000 0.858407
98770.00000 0.858625
98780.00000 0.858848
98790.00000 0.859074
98800.00000 0.859304
98810.00000 0.859535
98820.00000 0.859767
98830.00000 0.860001
98840.00000 0.860237
98850.00000 0.860475
98860.00000 0.860716
98870.00000 0.860959
98880.00000 0.861203
98890.00000 0.86145
98900.00000 0.861701
98910.00000 0.861957
98920.00000 0.862218
98930.00000 0.862484
98940.00000 0.862754
98950.00000 0.86303
98960.00000 0.863312
98970.00000 0.863602
98980.00000 0.863897
98990.00000 0.864198
99000.00000 0.864505
99010.00000 0.864816
99020.00000 0.865134
99030.00000 0.865458
99040.00000 0.865786
99050.00000 0.866118
99060.00000 0.866451
99070.00000 0.866788
99080.00000 0.867128
99090.00000 0.867471
99100.00000 0.867813
99110.00000 0.868153
99120.00000 0.868494
99130.00000 0.868834
99140.00000 0.869174
99150.00000 0.869509
99160.00000 0.869839
99170.00000 0.870164
99180.00000 0.870486
99190.00000 0.870803
99200.00000 0.871115
99210.00000 0.871421
99220.00000 0.87172
99230.00000 0.872013
99240.00000 0.872302
99250.00000 0.872589
99260.00000 0.872873
99270.00000 0.873151
99280.00000 0.873426
99290.00000 0.8737
99300.00000 0.873977
99310.00000 0.874258
99320.00000 0.874542
99330.00000 0.874828
99340.00000 0.875115
99350.00000 0.875403
99360.00000 0.875693
99370.00000 0.875985
99380.00000 0.876278
99390.00000 0.876572
99400.00000 0.876864
99410.00000 0.877157
99420.00000 0.877451
99430.00000 0.877745
99440.00000 0.878035
99450.00000 0.87832
99460.00000 0.878598
99470.00000 0.878872
99480.00000 0.879142
99490.00000 0.879405
99500.00000 0.879661
99510.00000 0.879909
99520.00000 0.880148
99530.00000 0.880381
99540.00000 0.880611
99550.00000 0.880842
99560.00000 0.881075
99570.00000 0.881308
99580.00000 0.88154
99590.00000 0.881772
99600.00000 0.882002
99610.00000 0.882232
99620.00000 0.882461
99630.00000 0.882689
99640.00000 0.882915
99650.00000 0.883137
99660.00000 0.883357
99670.00000 0.883575
99680.00000 0.883791
99690.00000 0.884
99700.00000 0.8842
99710.00000 0.884392
99720.00000 0.884576
99730.00000 0.884754
99740.00000 0.884923
99750.00000 0.885084
99760.00000 0.885236
99770.00000 0.885377
99780.00000 0.885512
99790.00000 0.885641
99800.00000 0.885767
99810.00000 0.885887
99820.00000 0.885998
99830.00000 0.886106
99840.00000 0.886219
99850.00000 0.886342
99860.00000 0.886473
99870.00000 0.886607
99880.00000 0.886749
99890.00000 0.886903
99900.00000 0.887074
99910.00000 0.887272
99920.00000 0.887497
99930.00000 0.887728
99940.00000 0.88795
99950.00000 0.888144
99960.00000 0.888348
99970.00000 0.888575
99980.00000 0.888767
99990.00000 0.888865
100000.00000 0.88881
100010.00000 0.888653
100020.00000 0.888431
100030.00000 0.888072
100040.00000 0.887502
100050.00000 0.886648
100060.00000 0.885518
100070.00000 0.884163
100080.00000 0.882569
100090.00000 0.880721
100100.00000 0.878608
100110.00000 0.87615
100120.00000 0.873356
100130.00000 0.870342
100140.00000 0.867227
100150.00000 0.864127
100160.00000 0.860903
100170.00000 0.857464
100180.00000 0.854032
100190.00000 0.850833
100200.00000 0.848087
100210.00000 0.845705
100220.00000 0.843511
100230.00000 0.84168
100240.00000 0.840387
100250.00000 0.839808
100260.00000 0.839982
100270.00000 0.840786
100280.00000 0.842186
100290.00000 0.844151
100300.00000 0.846648
100310.00000 0.849807
100320.00000 0.853696
100330.00000 0.858081
100340.00000 0.862721
100350.00000 0.867379
100360.00000 0.87214
100370.00000 0.877256
100380.00000 0.88247
100390.00000 0.887515
100400.00000 0.892125
100410.00000 0.896273
100420.00000 0.900207
100430.00000 0.903828
100440.00000 0.907027
100450.00000 0.909698
100460.00000 0.911762
100470.00000 0.913277
100480.00000 0.914325
100490.00000 0.914987
100500.00000 0.915344
100510.00000 0.915371
100520.00000 0.91493
100530.00000 0.914159
100540.00000 0.913212
100550.00000 0.91224
100560.00000 0.911293
100570.00000 0.910189
100580.00000 0.909005
100590.00000 0.907834
100600.00000 0.906773
100610.00000 0.905877
100620.00000 0.905065
100630.00000 0.904331
100640.00000 0.903679
100650.00000 0.903112
100660.00000 0.902642
100670.00000 0.902288
100680.00000 0.902022
100690.00000 0.901811
100700.00000 0.901625
100710.00000 0.901441
100720.00000 0.901298
100730.00000 0.901187
100740.00000 0.901093
100750.00000 0.900999
100760.00000 0.90089
100770.00000 0.900778
100780.00000 0.900668
100790.00000 0.90056
100800.00000 0.900455
100810.00000 0.900352
100820.00000 0.900251
100830.00000 0.900152
100840.00000 0.900056
100850.00000 0.899965
100860.00000 0.89988
100870.00000 0.899801
100880.00000 0.899727
100890.00000 0.899658
100900.00000 0.899592
100910.00000 0.899529
100920.00000 0.89947
100930.00000 0.899415
100940.00000 0.899363
100950.00000 0.899315
100960.00000 0.899271
100970.00000 0.89923
100980.00000 0.899191
100990.00000 0.899157
101000.00000 0.89913
101010.00000 0.899114
101020.00000 0.899106
101030.00000 0.899106
101040.00000 0.899114
101050.00000 0.899132
101060.00000 0.899163
101070.00000 0.899208
101080.00000 0.899264
101090.00000 0.899332
101100.00000 0.899409
101110.00000 0.899495
101120.00000 0.89959
101130.00000 0.899694
101140.00000 0.899808
101150.00000 0.89993
101160.00000 0.900058
101170.00000 0.900195
101180.00000 0.900345
101190.00000 0.900502
101200.00000 0.900661
101210.00000 0.900815
101220.00000 0.900961
101230.00000 0.901105
101240.00000 0.901247
101250.00000 0.901383
101260.00000 0.90151
101270.00000 0.901627
101280.00000 0.901736
101290.00000 0.901838
101300.00000 0.90193
101310.00000 0.90201
101320.00000 0.902075
101330.00000 0.902127
101340.00000 0.902166
101350.00000 0.902194
101360.00000 0.90221
101370.00000 0.902215
101380.00000 0.902206
101390.00000 0.902182
101400.00000 0.90215
101410.00000 0.902111
101420.00000 0.902071
101430.00000 0.902027
101440.00000 0.901976
101450.00000 0.901922
101460.00000 0.901867
101470.00000 0.901815
101480.00000 0.901766
101490.00000 0.901718
101500.00000 0.901671
101510.00000 0.901625
101520.00000 0.901581
101530.00000 0.901541
101540.00000 0.901503
101550.00000 0.901468
101560.00000 0.901434
101570.00000 0.901398
101580.00000 0.901362
101590.00000 0.901326
101600.00000 0.90129
101610.00000 0.901252
101620.00000 0.901211
101630.00000 0.901165
101640.00000 0.901117
101650.00000 0.901066
101660.00000 0.901012
101670.00000 0.900953
101680.00000 0.90089
101690.00000 0.900821
101700.00000 0.900749
101710.00000 0.900673
101720.00000 0.900592
101730.00000 0.900505
101740.00000 0.900414
101750.00000 0.900318
101760.00000 0.900217
101770.00000 0.900111
101780.00000 0.9
101790.00000 0.899884
101800.00000 0.899762
101810.00000 0.899635
101820.00000 0.899503
101830.00000 0.899368
101840.00000 0.899227
101850.00000 0.899082
101860.00000 0.898931
101870.00000 0.898778
101880.00000 0.898624
101890.00000 0.89847
101900.00000 0.898312
101910.00000 0.898153
101920.00000 0.897994
101930.00000 0.897839
101940.00000 0.89769
101950.00000 0.897544
101960.00000 0.897401
101970.00000 0.897262
101980.00000 0.897131
101990.00000 0.89701
102000.00000 0.896898
102010.00000 0.896794
102020.00000 0.896697
102030.00000 0.896609
102040.00000 0.89653
102050.00000 0.89646
102060.00000 0.8964
102070.00000 0.896349
102080.00000 0.896303
102090.00000 0.89626
102100.00000 0.89622
102110.00000 0.896187
102120.00000 0.896159
102130.00000 0.896132
102140.00000 0.896102
102150.00000 0.896069
102160.00000 0.896035
102170.00000 0.896001
102180.00000 0.895964
102190.00000 0.895922
102200.00000 0.895873
102210.00000 0.895819
102220.00000 0.89576
102230.00000 0.895696
102240.00000 0.895627
102250.00000 0.895552
102260.00000 0.895473
102270.00000 0.895387
102280.00000 0.895297
102290.00000 0.895202
102300.00000 0.895104
102310.00000 0.895002
102320.00000 0.894896
102330.00000 0.894786
102340.00000 0.894672
102350.00000 0.894555
102360.00000 0.894434
102370.00000 0.894311
102380.00000 0.894183
102390.00000 0.894052
102400.00000 0.893916
102410.00000 0.893774
102420.00000 0.893628
102430.00000 0.893477
102440.00000 0.89332
102450.00000 0.893159
102460.00000 0.892991
102470.00000 0.892817
102480.00000 0.892637
102490.00000 0.892452
102500.00000 0.892262
102510.00000 0.892068
102520.00000 0.891869
102530.00000 0.891665
102540.00000 0.891456
102550.00000 0.891245
102560.00000 0.891034
102570.00000 0.890823
102580.00000 0.89061
102590.00000 0.890395
102600.00000 0.89018
102610.00000 0.889968
102620.00000 0.88976
102630.00000 0.889553
102640.00000 0.889348
102650.00000 0.889146
102660.00000 0.888946
102670.00000 0.88875
102680.00000 0.888558
102690.00000 0.88837
102700.00000 0.888184
102710.00000 0.888
102720.00000 0.887818
102730.00000 0.887637
102740.00000 0.887459
102750.00000 0.887282
102760.00000 0.887107
102770.00000 0.886931
102780.00000 0.886754
102790.00000 0.886578
102800.00000 0.886402
102810.00000 0.886226
102820.00000 0.88605
102830.00000 0.885872
102840.00000 0.885693
102850.00000 0.885513
102860.00000 0.885332
102870.00000 0.885151
102880.00000 0.88497
102890.00000 0.884788
102900.00000 0.884606
102910.00000 0.884424
102920.00000 0.884241
102930.00000 0.884057
102940.00000 0.883874
102950.00000 0.88369
102960.00000 0.883506
102970.00000 0.883322
102980.00000 0.883137
102990.00000 0.882951
103000.00000 0.882765
103010.00000 0.882578
103020.00000 0.88239
103030.00000 0.882202
103040.00000 0.882012
103050.00000 0.881821
103060.00000 0.881628
103070.00000 0.881434
103080.00000 0.88124
103090.00000 0.881046
103100.00000 0.880851
103110.00000 0.880656
103120.00000 0.88046
103130.00000 0.880264
103140.00000 0.880069
103150.00000 0.879875
103160.00000 0.879683
103170.00000 0.87949
103180.00000 0.879299
103190.00000 0.879109
103200.00000 0.878921
103210.00000 0.878734
103220.00000 0.878549
103230.00000 0.878365
103240.00000 0.878182
103250.00000 0.878
103260.00000 0.877819
103270.00000 0.877638
103280.00000 0.877459
103290.00000 0.87728
103300.00000 0.877102
103310.00000 0.876924
103320.00000 0.876747
103330.00000 0.87657
103340.00000 0.876394
103350.00000 0.876218
103360.00000 0.876043
103370.00000 0.875869
103380.00000 0.875696
103390.00000 0.875523
103400.00000 0.87535
103410.00000 0.875177
103420.00000 0.875004
103430.00000 0.874832
103440.00000 0.87466
103450.00000 0.874487
103460.00000 0.874312
103470.00000 0.874134
103480.00000 0.873956
103490.00000 0.873776
103500.00000 0.873593
103510.00000 0.873407
103520.00000 0.873217
103530.00000 0.873022
103540.00000 0.872823
103550.00000 0.872621
103560.00000 0.872415
103570.00000 0.872205
103580.00000 0.871991
103590.00000 0.871772
103600.00000 0.871548
103610.00000 0.871323
103620.00000 0.871097
103630.00000 0.870871
103640.00000 0.870642
103650.00000 0.870412
103660.00000 0.870182
103670.00000 0.869954
103680.00000 0.86973
103690.00000 0.869511
103700.00000 0.869294
103710.00000 0.86908
103720.00000 0.86887
103730.00000 0.868667
103740.00000 0.86847
103750.00000 0.86828
103760.00000 0.868095
103770.00000 0.867916
103780.00000 0.867742
103790.00000 0.867572
103800.00000 0.867409
103810.00000 0.867252
103820.00000 0.867099
103830.00000 0.866949
103840.00000 0.866801
103850.00000 0.866654
103860.00000 0.866511
103870.00000 0.866371
103880.00000 0.866231
103890.00000 0.86609
103900.00000 0.865948
103910.00000 0.865805
103920.00000 0.865662
103930.00000 0.865518
103940.00000 0.865372
103950.00000 0.865224
103960.00000 0.865072
103970.00000 0.864919
103980.00000 0.864763
103990.00000 0.864605
104000.00000 0.864445
104010.00000 0.864282
104020.00000 0.864116
104030.00000 0.863948
104040.00000 0.863778
104050.00000 0.863605
104060.00000 0.86343
104070.00000 0.863253
104080.00000 0.863074
104090.00000 0.862892
104100.00000 0.862708
104110.00000 0.862521
104120.00000 0.862332
104130.00000 0.862139
104140.00000 0.861945
104150.00000 0.861748
104160.00000 0.861549
104170.00000 0.861348
104180.00000 0.861144
104190.00000 0.860938
104200.00000 0.86073
104210.00000 0.860522
104220.00000 0.860316
104230.00000 0.860109
104240.00000 0.859902
104250.00000 0.859695
104260.00000 0.859491
104270.00000 0.859291
104280.00000 0.859097
104290.00000 0.858906
104300.00000 0.858719
104310.00000 0.858536
104320.00000 0.858358
104330.00000 0.858187
104340.00000 0.858022
104350.00000 0.857863
104360.00000 0.857709
104370.00000 0.857559
104380.00000 0.857413
104390.00000 0.85727
104400.00000 0.857131
104410.00000 0.856997
104420.00000 0.856865
104430.00000 0.856735
104440.00000 0.856606
104450.00000 0.856476
104460.00000 0.856349
104470.00000 0.856223
104480.00000 0.856098
104490.00000 0.855975
104500.00000 0.855854
104510.00000 0.855733
104520.00000 0.855613
104530.00000 0.855496
104540.00000 0.855383
104550.00000 0.855273
104560.00000 0.855168
104570.00000 0.855066
104580.00000 0.854967
104590.00000 0.854871
104600.00000 0.854776
104610.00000 0.854685
104620.00000 0.854599
104630.00000 0.854516
104640.00000 0.854432
104650.00000 0.854344
104660.00000 0.854249
104670.00000 0.854154
104680.00000 0.854056
104690.00000 0.853953
104700.00000 0.853841
104710.00000 0.853715
104720.00000 0.853576
104730.00000 0.853425
104740.00000 0.853264
104750.00000 0.853092
104760.00000 0.852906
104770.00000 0.852707
104780.00000 0.85249
104790.00000 0.85226
104800.00000 0.852018
104810.00000 0.85177
104820.00000 0.851517
104830.00000 0.85126
104840.00000 0.85099
104850.00000 0.850715
104860.00000 0.85044
104870.00000 0.85017
104880.00000 0.84991
104890.00000 0.849653
104900.00000 0.849399
104910.00000 0.849151
104920.00000 0.848913
104930.00000 0.848689
104940.00000 0.84848
104950.00000 0.848283
104960.00000 0.848097
104970.00000 0.847922
104980.00000 0.847757
104990.00000 0.847603
105000.00000 0.847463
105010.00000 0.847335
105020.00000 0.847216
105030.00000 0.847104
105040.00000 0.846995
105050.00000 0.846889
105060.00000 0.846792
105070.00000 0.846699
105080.00000 0.846609
105090.00000 0.84652
105100.00000 0.84643
105110.00000 0.846339
105120.00000 0.84625
105130.00000 0.846161
105140.00000 0.846072
105150.00000 0.845984
105160.00000 0.845896
105170.00000 0.845806
105180.00000 0.845717
105190.00000 0.845629
105200.00000 0.845544
105210.00000 0.845463
105220.00000 0.845384
105230.00000 0.845308
105240.00000 0.845235
105250.00000 0.845165
105260.00000 0.845098
105270.00000 0.845035
105280.00000 0.844977
105290.00000 0.844922
105300.00000 0.844869
105310.00000 0.844816
105320.00000 0.844761
105330.00000 0.844708
105340.00000 0.844657
105350.00000 0.844604
105360.00000 0.844548
105370.00000 0.844486
105380.00000 0.844416
105390.00000 0.844341
105400.00000 0.844262
105410.00000 0.844176
105420.00000 0.844082
105430.00000 0.843979
105440.00000 0.843866
105450.00000 0.843744
105460.00000 0.843614
105470.00000 0.843476
105480.00000 0.843333
105490.00000 0.843183
105500.00000 0.843023
105510.00000 0.842856
105520.00000 0.842684
105530.00000 0.84251
105540.00000 0.842336
105550.00000 0.842162
105560.00000 0.841983
105570.00000 0.841803
105580.00000 0.841625
105590.00000 0.84145
105600.00000 0.841281
105610.00000 0.841116
105620.00000 0.840953
105630.00000 0.840795
105640.00000 0.840642
105650.00000 0.840495
105660.00000 0.840356
105670.00000 0.840222
105680.00000 0.840095
105690.00000 0.839973
105700.00000 0.839856
105710.00000 0.839743
105720.00000 0.839636
105730.00000 0.839534
105740.00000 0.839437
105750.00000 0.839344
105760.00000 0.839255
105770.00000 0.839169
105780.00000 0.839087
105790.00000 0.839008
105800.00000 0.838934
105810.00000 0.838863
105820.00000 0.838797
105830.00000 0.838735
105840.00000 0.838676
105850.00000 0.838621
105860.00000 0.838572
105870.00000 0.838529
105880.00000 0.838492
105890.00000 0.838462
105900.00000 0.838438
105910.00000 0.838419
105920.00000 0.838407
105930.00000 0.838402
105940.00000 0.838405
105950.00000 0.838415
105960.00000 0.838433
105970.00000 0.838455
105980.00000 0.838482
105990.00000 0.838511
106000.00000 0.838546
106010.00000 0.838587
106020.00000 0.838632
106030.00000 0.838677
106040.00000 0.838721
106050.00000 0.838763
106060.00000 0.838807
106070.00000 0.838851
106080.00000 0.838893
106090.00000 0.838932
106100.00000 0.838967
106110.00000 0.838998
106120.00000 0.839025
106130.00000 0.839048
106140.00000 0.839069
106150.00000 0.839087
106160.00000 0.839102
106170.00000 0.839113
106180.00000 0.839121
106190.00000 0.839127
106200.00000 0.839131
106210.00000 0.839136
106220.00000 0.839142
106230.00000 0.839147
106240.00000 0.839151
106250.00000 0.839156
106260.00000 0.839162
106270.00000 0.839169
106280.00000 0.839178
106290.00000 0.839189
106300.00000 0.839201
106310.00000 0.839213
106320.00000 0.839224
106330.00000 0.839233
106340.00000 0.839244
106350.00000 0.839255
106360.00000 0.839264
106370.00000 0.83927
106380.00000 0.839272
106390.00000 0.839269
106400.00000 0.839263
106410.00000 0.839253
106420.00000 0.83924
106430.00000 0.839221
106440.00000 0.839197
106450.00000 0.839166
106460.00000 0.839129
106470.00000 0.839088
106480.00000 0.839042
106490.00000 0.838993
106500.00000 0.838941
106510.00000 0.838884
106520.00000 0.838822
106530.00000 0.838757
106540.00000 0.838691
106550.00000 0.838624
106560.00000 0.838556
106570.00000 0.838486
106580.00000 0.838415
106590.00000 0.838343
106600.00000 0.838271
106610.00000 0.8382
106620.00000 0.838129
106630.00000 0.838059
106640.00000 0.837989
106650.00000 0.837919
106660.00000 0.837849
106670.00000 0.837778
106680.00000 0.837707
106690.00000 0.837636
106700.00000 0.837565
106710.00000 0.837493
106720.00000 0.83742
106730.00000 0.837346
106740.00000 0.837272
106750.00000 0.837196
106760.00000 0.83712
106770.00000 0.837044
106780.00000 0.836968
106790.00000 0.836891
106800.00000 0.836813
106810.00000 0.836735
106820.00000 0.836658
106830.00000 0.836582
106840.00000 0.836509
106850.00000 0.836437
106860.00000 0.836367
106870.00000 0.836298
106880.00000 0.836231
106890.00000 0.836169
106900.00000 0.836111
106910.00000 0.836055
106920.00000 0.836002
106930.00000 0.835954
106940.00000 0.835909
106950.00000 0.835869
106960.00000 0.835834
106970.00000 0.835803
106980.00000 0.835776
106990.00000 0.835754
107000.00000 0.835737
107010.00000 0.835726
107020.00000 0.835719
107030.00000 0.835718
107040.00000 0.835722
107050.00000 0.835732
107060.00000 0.835747
107070.00000 0.83577
107080.00000 0.835799
107090.00000 0.835833
107100.00000 0.835874
107110.00000 0.835921
107120.00000 0.835974
107130.00000 0.836033
107140.00000 0.836098
107150.00000 0.83617
107160.00000 0.836248
107170.00000 0.83633
107180.00000 0.836417
107190.00000 0.836509
107200.00000 0.836606
107210.00000 0.836708
107220.00000 0.836815
107230.00000 0.836926
107240.00000 0.837039
107250.00000 0.837156
107260.00000 0.837277
107270.00000 0.837402
107280.00000 0.837531
107290.00000 0.837664
107300.00000 0.8378
107310.00000 0.837941
107320.00000 0.838084
107330.00000 0.838233
107340.00000 0.838386
107350.00000 0.838545
107360.00000 0.838709
107370.00000 0.838879
107380.00000 0.839054
107390.00000 0.839235
107400.00000 0.839421
107410.00000 0.839612
107420.00000 0.83981
107430.00000 0.840014
107440.00000 0.840224
107450.00000 0.840439
107460.00000 0.840656
107470.00000 0.840876
107480.00000 0.841099
107490.00000 0.841328
107500.00000 0.84156
107510.00000 0.841793
107520.00000 0.842024
107530.00000 0.842253
107540.00000 0.842482
107550.00000 0.842712
107560.00000 0.84294
107570.00000 0.843166
107580.00000 0.843386
107590.00000 0.8436
107600.00000 0.843811
107610.00000 0.844018
107620.00000 0.84422
107630.00000 0.844417
107640.00000 0.844608
107650.00000 0.844792
107660.00000 0.84497
107670.00000 0.845143
107680.00000 0.845309
107690.00000 0.84547
107700.00000 0.845625
107710.00000 0.845773
107720.00000 0.845916
107730.00000 0.846052
107740.00000 0.846183
107750.00000 0.846309
107760.00000 0.846429
107770.00000 0.846545
107780.00000 0.846654
107790.00000 0.846759
107800.00000 0.846859
107810.00000 0.846956
107820.00000 0.84705
107830.00000 0.847139
107840.00000 0.847224
107850.00000 0.847306
107860.00000 0.847385
107870.00000 0.847463
107880.00000 0.847539
107890.00000 0.847612
107900.00000 0.847684
107910.00000 0.847754
107920.00000 0.847822
107930.00000 0.847888
107940.00000 0.847954
107950.00000 0.848018
107960.00000 0.848081
107970.00000 0.848143
107980.00000 0.848201
107990.00000 0.848257
108000.00000 0.848311
108010.00000 0.848363
108020.00000 0.848412
108030.00000 0.848458
108040.00000 0.8485
108050.00000 0.848536
108060.00000 0.848568
108070.00000 0.848595
108080.00000 0.848619
108090.00000 0.848637
108100.00000 0.84865
108110.00000 0.848657
108120.00000 0.848658
108130.00000 0.848654
108140.00000 0.848644
108150.00000 0.84863
108160.00000 0.848612
108170.00000 0.84859
108180.00000 0.848562
108190.00000 0.848529
108200.00000 0.848492
108210.00000 0.848453
108220.00000 0.848414
108230.00000 0.848375
108240.00000 0.848333
108250.00000 0.84829
108260.00000 0.848247
108270.00000 0.848204
108280.00000 0.848165
108290.00000 0.848129
108300.00000 0.848095
108310.00000 0.848063
108320.00000 0.848032
108330.00000 0.848005
108340.00000 0.847981
108350.00000 0.847962
108360.00000 0.847947
108370.00000 0.847935
108380.00000 0.847926
108390.00000 0.847916
108400.00000 0.847905
108410.00000 0.847895
108420.00000 0.847887
108430.00000 0.84788
108440.00000 0.84787
108450.00000 0.847856
108460.00000 0.847834
108470.00000 0.847807
108480.00000 0.847778
108490.00000 0.847744
108500.00000 0.847703
108510.00000 0.847653
108520.00000 0.847592
108530.00000 0.847521
108540.00000 0.847441
108550.00000 0.847353
108560.00000 0.847256
108570.00000 0.84715
108580.00000 0.847037
108590.00000 0.846914
108600.00000 0.84678
108610.00000 0.846639
108620.00000 0.846493
108630.00000 0.846343
108640.00000 0.846191
108650.00000 0.846033
108660.00000 0.84587
108670.00000 0.845703
108680.00000 0.845535
108690.00000 0.845369
108700.00000 0.845206
108710.00000 0.845043
108720.00000 0.844881
108730.00000 0.844719
108740.00000 0.844558
108750.00000 0.8444
108760.00000 0.844245
108770.00000 0.844092
108780.00000 0.843942
108790.00000 0.843793
108800.00000 0.843644
108810.00000 0.843495
108820.00000 0.843346
108830.00000 0.843198
108840.00000 0.84305
108850.00000 0.842902
108860.00000 0.842753
108870.00000 0.842599
108880.00000 0.842442
108890.00000 0.842283
108900.00000 0.842121
108910.00000 0.841956
108920.00000 0.841789
108930.00000 0.841618
108940.00000 0.841443
108950.00000 0.841265
108960.00000 0.841083
108970.00000 0.840899
108980.00000 0.840713
108990.00000 0.840525
109000.00000 0.840335
109010.00000 0.840143
109020.00000 0.839948
109030.00000 0.839752
109040.00000 0.839557
109050.00000 0.839363
109060.00000 0.83917
109070.00000 0.838977
109080.00000 0.838785
109090.00000 0.838594
109100.00000 0.838404
109110.00000 0.838217
109120.00000 0.838033
109130.00000 0.83785
109140.00000 0.837669
109150.00000 0.83749
109160.00000 0.837313
109170.00000 0.837138
109180.00000 0.836965
109190.00000 0.836794
109200.00000 0.836625
109210.00000 0.836458
109220.00000 0.836292
109230.00000 0.836126
109240.00000 0.835962
109250.00000 0.835798
109260.00000 0.835636
109270.00000 0.835476
109280.00000 0.835317
109290.00000 0.835159
109300.00000 0.835003
109310.00000 0.834848
109320.00000 0.834694
109330.00000 0.834543
109340.00000 0.834395
109350.00000 0.83425
109360.00000 0.834109
109370.00000 0.833971
109380.00000 0.833835
109390.00000 0.833703
109400.00000 0.833575
109410.00000 0.833452
109420.00000 0.833334
109430.00000 0.833221
109440.00000 0.833112
109450.00000 0.833005
109460.00000 0.832901
109470.00000 0.832799
109480.00000 0.832701
109490.00000 0.832607
109500.00000 0.832515
109510.00000 0.832424
109520.00000 0.83233
109530.00000 0.832231
109540.00000 0.832131
109550.00000 0.832031
109560.00000 0.831929
109570.00000 0.831821
109580.00000 0.831706
109590.00000 0.831579
109600.00000 0.831445
109610.00000 0.831303
109620.00000 0.831154
109630.00000 0.830996
109640.00000 0.830826
109650.00000 0.830645
109660.00000 0.83045
109670.00000 0.830244
109680.00000 0.830027
109690.00000 0.829801
109700.00000 0.829565
109710.00000 0.829321
109720.00000 0.829066
109730.00000 0.8288
109740.00000 0.828524
109750.00000 0.828243
109760.00000 0.827958
109770.00000 0.827673
109780.00000 0.827383
109790.00000 0.827087
109800.00000 0.826787
109810.00000 0.826487
109820.00000 0.82619
109830.00000 0.825899
109840.00000 0.825612
109850.00000 0.825326
109860.00000 0.825042
109870.00000 0.824763
109880.00000 0.824491
109890.00000 0.824226
109900.00000 0.82397
109910.00000 0.82372
109920.00000 0.823477
109930.00000 0.823239
109940.00000 0.823007
109950.00000 0.822781
109960.00000 0.822561
109970.00000 0.822348
109980.00000 0.822141
109990.00000 0.821939
110000.00000 0.821738
110010.00000 0.821539
110020.00000 0.821341
110030.00000 0.821147
110040.00000 0.820956
110050.00000 0.820766
110060.00000 0.820575
110070.00000 0.820384
110080.00000 0.82019
110090.00000 0.819997
110100.00000 0.819803
110110.00000 0.819609
110120.00000 0.819414
110130.00000 0.819218
110140.00000 0.819021
110150.00000 0.818823
110160.00000 0.818624
110170.00000 0.818425
110180.00000 0.818224
110190.00000 0.818023
110200.00000 0.817822
110210.00000 0.81762
110220.00000 0.817417
110230.00000 0.817214
110240.00000 0.817009
110250.00000 0.816802
110260.00000 0.816594
110270.00000 0.816384
110280.00000 0.816174
110290.00000 0.815962
110300.00000 0.815746
110310.00000 0.815527
110320.00000 0.815303
110330.00000 0.815075
110340.00000 0.814845
110350.00000 0.814611
110360.00000 0.814373
110370.00000 0.814131
110380.00000 0.813884
110390.00000 0.813633
110400.00000 0.813377
110410.00000 0.813117
110420.00000 0.812855
110430.00000 0.812591
110440.00000 0.812325
110450.00000 0.812055
110460.00000 0.811781
110470.00000 0.811506
110480.00000 0.81123
110490.00000 0.810955
110500.00000 0.810683
110510.00000 0.810411
110520.00000 0.810138
110530.00000 0.809866
110540.00000 0.809597
110550.00000 0.809331
110560.00000 0.80907
110570.00000 0.808811
110580.00000 0.808555
110590.00000 0.808302
110600.00000 0.808053
110610.00000 0.80781
110620.00000 0.807573
110630.00000 0.807342
110640.00000 0.807114
110650.00000 0.806893
110660.00000 0.806677
110670.00000 0.806468
110680.00000 0.806267
110690.00000 0.806074
110700.00000 0.805887
110710.00000 0.805707
110720.00000 0.805534
110730.00000 0.80537
110740.00000 0.805212
110750.00000 0.805064
110760.00000 0.804925
110770.00000 0.804794
110780.00000 0.80467
110790.00000 0.804551
110800.00000 0.804436
110810.00000 0.804326
110820.00000 0.804223
110830.00000 0.804126
110840.00000 0.804033
110850.00000 0.803941
110860.00000 0.803849
110870.00000 0.803755
110880.00000 0.803662
110890.00000 0.803571
110900.00000 0.80348
110910.00000 0.803387
110920.00000 0.803291
110930.00000 0.803191
110940.00000 0.803087
110950.00000 0.802981
110960.00000 0.802872
110970.00000 0.802763
110980.00000 0.802654
110990.00000 0.802546
111000.00000 0.802436
111010.00000 0.802324
111020.00000 0.802212
111030.00000 0.802103
111040.00000 0.802
111050.00000 0.801904
111060.00000 0.801814
111070.00000 0.801728
111080.00000 0.801647
111090.00000 0.801572
111100.00000 0.801505
111110.00000 0.801447
111120.00000 0.801399
111130.00000 0.80136
111140.00000 0.801329
111150.00000 0.801305
111160.00000 0.801286
111170.00000 0.801273
111180.00000 0.801264
111190.00000 0.801264
111200.00000 0.801269
111210.00000 0.801279
111220.00000 0.801292
111230.00000 0.801304
111240.00000 0.801315
111250.00000 0.801327
111260.00000 0.801341
111270.00000 0.801356
111280.00000 0.801372
111290.00000 0.801387
111300.00000 0.801402
111310.00000 0.801415
111320.00000 0.801428
111330.00000 0.801441
111340.00000 0.801455
111350.00000 0.801473
111360.00000 0.801493
111370.00000 0.801516
111380.00000 0.80154
111390.00000 0.801567
111400.00000 0.801598
111410.00000 0.801633
111420.00000 0.801676
111430.00000 0.801724
111440.00000 0.801778
111450.00000 0.801837
111460.00000 0.801901
111470.00000 0.80197
111480.00000 0.802044
111490.00000 0.802123
111500.00000 0.802209
111510.00000 0.8023
111520.00000 0.802395
111530.00000 0.802494
111540.00000 0.802597
111550.00000 0.802702
111560.00000 0.802812
111570.00000 0.802926
111580.00000 0.803042
111590.00000 0.803161
111600.00000 0.803281
111610.00000 0.8034
111620.00000 0.80352
111630.00000 0.803643
111640.00000 0.803766
111650.00000 0.803889
111660.00000 0.804012
111670.00000 0.804134
111680.00000 0.804255
111690.00000 0.804376
111700.00000 0.804496
111710.00000 0.804616
111720.00000 0.804734
111730.00000 0.804851
111740.00000 0.804965
111750.00000 0.805078
111760.00000 0.805189
111770.00000 0.805299
111780.00000 0.805409
111790.00000 0.80552
111800.00000 0.805631
111810.00000 0.80574
111820.00000 0.80585
111830.00000 0.80596
111840.00000 0.806071
111850.00000 0.806185
111860.00000 0.806303
111870.00000 0.806422
111880.00000 0.806542
111890.00000 0.806665
111900.00000 0.806792
111910.00000 0.806923
111920.00000 0.80706
111930.00000 0.807203
111940.00000 0.80735
111950.00000 0.807502
111960.00000 0.807658
111970.00000 0.807819
111980.00000 0.807983
111990.00000 0.808153
112000.00000 0.808329
112010.00000 0.808508
112020.00000 0.808692
112030.00000 0.808879
112040.00000 0.809068
112050.00000 0.80926
112060.00000 0.809455
112070.00000 0.809654
112080.00000 0.809855
112090.00000 0.810058
112100.00000 0.810261
112110.00000 0.810463
112120.00000 0.810665
112130.00000 0.810869
112140.00000 0.811073
112150.00000 0.811277
112160.00000 0.811481
112170.00000 0.811685
112180.00000 0.811888
112190.00000 0.812092
112200.00000 0.812295
112210.00000 0.812498
112220.00000 0.812701
112230.00000 0.812903
112240.00000 0.813103
112250.00000 0.813303
112260.00000 0.813503
112270.00000 0.813702
112280.00000 0.813899
112290.00000 0.814095
112300.00000 0.814289
112310.00000 0.814482
112320.00000 0.814674
112330.00000 0.814864
112340.00000 0.815053
112350.00000 0.815239
112360.00000 0.815424
112370.00000 0.815606
112380.00000 0.815786
112390.00000 0.815963
112400.00000 0.81614
112410.00000 0.816316
112420.00000 0.816492
112430.00000 0.816668
112440.00000 0.816842
112450.00000 0.817015
112460.00000 0.817188
112470.00000 0.817363
112480.00000 0.817542
112490.00000 0.817724
112500.00000 0.817908
112510.00000 0.818094
112520.00000 0.818282
112530.00000 0.818474
112540.00000 0.818673
112550.00000 0.818878
112560.00000 0.819089
112570.00000 0.819306
112580.00000 0.819527
112590.00000 0.819755
112600.00000 0.819989
112610.00000 0.820229
112620.00000 0.820477
112630.00000 0.820731
112640.00000 0.820993
112650.00000 0.82126
112660.00000 0.821532
112670.00000 0.821809
112680.00000 0.822089
112690.00000 0.822375
112700.00000 0.822667
112710.00000 0.822964
112720.00000 0.823262
112730.00000 0.823562
112740.00000 0.823861
112750.00000 0.824161
112760.00000 0.824463
112770.00000 0.824767
112780.00000 0.825071
112790.00000 0.825374
112800.00000 0.825674
112810.00000 0.825971
112820.00000 0.826267
112830.00000 0.826562
112840.00000 0.826855
112850.00000 0.827147
112860.00000 0.827437
112870.00000 0.827726
112880.00000 0.828012
112890.00000 0.828296
112900.00000 0.828579
112910.00000 0.828862
112920.00000 0.829145
112930.00000 0.82943
112940.00000 0.829717
112950.00000 0.830003
112960.00000 0.830289
112970.00000 0.830577
112980.00000 0.830868
112990.00000 0.831161
113000.00000 0.831459
113010.00000 0.83176
113020.00000 0.832063
113030.00000 0.832369
113040.00000 0.832677
113050.00000 0.832987
113060.00000 0.833299
113070.00000 0.833614
113080.00000 0.833932
113090.00000 0.834253
113100.00000 0.834574
113110.00000 0.834894
113120.00000 0.835211
113130.00000 0.835526
113140.00000 0.835842
113150.00000 0.836157
113160.00000 0.83647
113170.00000 0.836779
113180.00000 0.837084
113190.00000 0.837382
113200.00000 0.837677
113210.00000 0.837967
113220.00000 0.838253
113230.00000 0.838535
113240.00000 0.838813
113250.00000 0.839086
113260.00000 0.839354
113270.00000 0.839615
113280.00000 0.839873
113290.00000 0.840126
113300.00000 0.840379
113310.00000 0.84063
113320.00000 0.840882
113330.00000 0.84113
113340.00000 0.841376
113350.00000 0.841622
113360.00000 0.841868
113370.00000 0.842116
113380.00000 0.842369
113390.00000 0.842623
113400.00000 0.842878
113410.00000 0.843136
113420.00000 0.843396
113430.00000 0.84366
113440.00000 0.843929
113450.00000 0.844204
113460.00000 0.844483
113470.00000 0.844766
113480.00000 0.845054
113490.00000 0.845345
113500.00000 0.845638
113510.00000 0.845935
113520.00000 0.846236
113530.00000 0.846541
113540.00000 0.84685
113550.00000 0.84716
113560.00000 0.84747
113570.00000 0.84778
113580.00000 0.848089
113590.00000 0.848402
113600.00000 0.848715
113610.00000 0.849028
113620.00000 0.849338
113630.00000 0.849643
113640.00000 0.849941
113650.00000 0.850236
113660.00000 0.850528
113670.00000 0.850817
113680.00000 0.8511
113690.00000 0.851379
113700.00000 0.851651
113710.00000 0.851918
113720.00000 0.852178
113730.00000 0.852434
113740.00000 0.852685
113750.00000 0.852931
113760.00000 0.853173
113770.00000 0.853411
113780.00000 0.853643
113790.00000 0.853869
113800.00000 0.854092
113810.00000 0.854312
113820.00000 0.85453
113830.00000 0.854749
113840.00000 0.854967
113850.00000 0.855184
113860.00000 0.855399
113870.00000 0.855613
113880.00000 0.855826
113890.00000 0.856038
113900.00000 0.856249
113910.00000 0.856461
113920.00000 0.856673
113930.00000 0.856884
113940.00000 0.857092
113950.00000 0.857296
113960.00000 0.857495
113970.00000 0.857692
113980.00000 0.857887
113990.00000 0.858079
114000.00000 0.858266
114010.00000 0.858445
114020.00000 0.858613
114030.00000 0.858771
114040.00000 0.858921
114050.00000 0.859063
114060.00000 0.859196
114070.00000 0.859319
114080.00000 0.85943
114090.00000 0.859527
114100.00000 0.859612
114110.00000 0.859685
114120.00000 0.859746
114130.00000 0.859795
114140.00000 0.859833
114150.00000 0.859859
114160.00000 0.859874
114170.00000 0.859875
114180.00000 0.859864
114190.00000 0.859842
114200.00000 0.85981
114210.00000 0.859768
114220.00000 0.859719
114230.00000 0.859661
114240.00000 0.859592
114250.00000 0.859514
114260.00000 0.859427
114270.00000 0.859334
114280.00000 0.859233
114290.00000 0.859127
114300.00000 0.859014
114310.00000 0.858893
114320.00000 0.858766
114330.00000 0.858632
114340.00000 0.858493
114350.00000 0.858348
114360.00000 0.858198
114370.00000 0.858043
114380.00000 0.857882
114390.00000 0.857715
114400.00000 0.857542
114410.00000 0.857364
114420.00000 0.85718
114430.00000 0.856991
114440.00000 0.856797
114450.00000 0.856596
114460.00000 0.85639
114470.00000 0.856175
114480.00000 0.855953
114490.00000 0.855724
114500.00000 0.855488
114510.00000 0.855246
114520.00000 0.854995
114530.00000 0.854736
114540.00000 0.854466
114550.00000 0.854185
114560.00000 0.853894
114570.00000 0.853594
114580.00000 0.853285
114590.00000 0.852965
114600.00000 0.852634
114610.00000 0.852292
114620.00000 0.851939
114630.00000 0.851572
114640.00000 0.851193
114650.00000 0.850805
114660.00000 0.850409
114670.00000 0.850007
114680.00000 0.849599
114690.00000 0.849181
114700.00000 0.848752
114710.00000 0.848315
114720.00000 0.847876
114730.00000 0.847437
114740.00000 0.847004
114750.00000 0.846577
114760.00000 0.846147
114770.00000 0.845715
114780.00000 0.845287
114790.00000 0.844869
114800.00000 0.844465
114810.00000 0.844082
114820.00000 0.843716
114830.00000 0.843358
114840.00000 0.843013
114850.00000 0.842686
114860.00000 0.842379
114870.00000 0.842098
114880.00000 0.841846
114890.00000 0.841617
114900.00000 0.84141
114910.00000 0.841226
114920.00000 0.841067
114930.00000 0.840933
114940.00000 0.840825
114950.00000 0.840745
114960.00000 0.840692
114970.00000 0.840665
114980.00000 0.840662
114990.00000 0.840682
115000.00000 0.840723
115010.00000 0.840783
115020.00000 0.840867
115030.00000 0.840975
115040.00000 0.841105
115050.00000 0.841254
115060.00000 0.841418
115070.00000 0.841594
115080.00000 0.841782
115090.00000 0.841987
115100.00000 0.842209
115110.00000 0.842444
115120.00000 0.84269
115130.00000 0.842945
115140.00000 0.843205
115150.00000 0.843472
115160.00000 0.843751
115170.00000 0.844038
115180.00000 0.844333
115190.00000 0.844632
115200.00000 0.844933
115210.00000 0.845235
115220.00000 0.845541
115230.00000 0.845851
115240.00000 0.846166
115250.00000 0.846481
115260.00000 0.846797
115270.00000 0.847111
115280.00000 0.847424
115290.00000 0.847739
115300.00000 0.848054
115310.00000 0.848369
115320.00000 0.848681
115330.00000 0.84899
115340.00000 0.849294
115350.00000 0.849594
115360.00000 0.849891
115370.00000 0.850185
115380.00000 0.850476
115390.00000 0.850762
115400.00000 0.851044
115410.00000 0.851321
115420.00000 0.851593
115430.00000 0.851861
115440.00000 0.852124
115450.00000 0.852384
115460.00000 0.852639
115470.00000 0.852892
115480.00000 0.853141
115490.00000 0.853385
115500.00000 0.853625
115510.00000 0.853861
115520.00000 0.854096
115530.00000 0.85433
115540.00000 0.854566
115550.00000 0.854801
115560.00000 0.855035
115570.00000 0.855267
115580.00000 0.8555
115590.00000 0.855733
115600.00000 0.855969
115610.00000 0.856207
115620.00000 0.856446
115630.00000 0.856686
115640.00000 0.856928
115650.00000 0.857171
115660.00000 0.857417
115670.00000 0.857666
115680.00000 0.857918
115690.00000 0.858172
115700.00000 0.858429
115710.00000 0.858688
115720.00000 0.85895
115730.00000 0.859215
115740.00000 0.859484
115750.00000 0.859754
115760.00000 0.860027
115770.00000 0.860303
115780.00000 0.860581
115790.00000 0.860865
115800.00000 0.861153
115810.00000 0.861448
115820.00000 0.861746
115830.00000 0.862047
115840.00000 0.862354
115850.00000 0.862666
115860.00000 0.862986
115870.00000 0.863313
115880.00000 0.863649
115890.00000 0.863992
115900.00000 0.864341
115910.00000 0.864698
115920.00000 0.865063
115930.00000 0.865436
115940.00000 0.865818
115950.00000 0.866209
115960.00000 0.866611
115970.00000 0.86702
115980.00000 0.867438
115990.00000 0.867863
116000.00000 0.868293
116010.00000 0.868728
116020.00000 0.869171
116030.00000 0.869623
116040.00000 0.870081
116050.00000 0.870544
116060.00000 0.871008
116070.00000 0.871471
116080.00000 0.871932
116090.00000 0.872396
116100.00000 0.872864
116110.00000 0.873332
116120.00000 0.873797
116130.00000 0.874257
116140.00000 0.874709
116150.00000 0.875151
116160.00000 0.875591
116170.00000 0.876026
116180.00000 0.876455
116190.00000 0.876875
116200.00000 0.877285
116210.00000 0.877683
116220.00000 0.878069
116230.00000 0.878445
116240.00000 0.878811
116250.00000 0.879167
116260.00000 0.879512
116270.00000 0.879847
116280.00000 0.88017
116290.00000 0.880481
116300.00000 0.880781
116310.00000 0.88107
116320.00000 0.881349
116330.00000 0.881618
116340.00000 0.881878
116350.00000 0.882129
116360.00000 0.882371
116370.00000 0.882603
116380.00000 0.882825
116390.00000 0.883039
116400.00000 0.883245
116410.00000 0.883444
116420.00000 0.883636
116430.00000 0.883821
116440.00000 0.883997
116450.00000 0.884167
116460.00000 0.884328
116470.00000 0.884483
116480.00000 0.884631
116490.00000 0.884772
116500.00000 0.884906
116510.00000 0.885034
116520.00000 0.885154
116530.00000 0.885266
116540.00000 0.885371
116550.00000 0.885469
116560.00000 0.885558
116570.00000 0.885641
116580.00000 0.885716
116590.00000 0.885783
116600.00000 0.885842
116610.00000 0.885893
116620.00000 0.885935
116630.00000 0.885969
116640.00000 0.885994
116650.00000 0.886012
116660.00000 0.886021
116670.00000 0.88602
116680.00000 0.88601
116690.00000 0.88599
116700.00000 0.88596
116710.00000 0.885921
116720.00000 0.885872
116730.00000 0.885815
116740.00000 0.885747
116750.00000 0.88567
116760.00000 0.885583
116770.00000 0.885486
116780.00000 0.885379
116790.00000 0.885263
116800.00000 0.885138
116810.00000 0.885003
116820.00000 0.88486
116830.00000 0.884707
116840.00000 0.884544
116850.00000 0.884371
116860.00000 0.884189
116870.00000 0.884
116880.00000 0.883804
116890.00000 0.883602
116900.00000 0.883394
116910.00000 0.883178
116920.00000 0.882954
116930.00000 0.882724
116940.00000 0.882489
116950.00000 0.882248
116960.00000 0.882004
116970.00000 0.881755
116980.00000 0.8815
116990.00000 0.881239
117000.00000 0.880974
117010.00000 0.880706
117020.00000 0.880434
117030.00000 0.880159
117040.00000 0.879882
117050.00000 0.879601
117060.00000 0.879316
117070.00000 0.879028
117080.00000 0.878736
117090.00000 0.878441
117100.00000 0.878142
117110.00000 0.877839
117120.00000 0.877532
117130.00000 0.877221
117140.00000 0.876908
117150.00000 0.876592
117160.00000 0.876274
117170.00000 0.875954
117180.00000 0.875631
117190.00000 0.875304
117200.00000 0.874975
117210.00000 0.874645
117220.00000 0.874315
117230.00000 0.873985
117240.00000 0.873656
117250.00000 0.873324
117260.00000 0.872991
117270.00000 0.872658
117280.00000 0.872327
117290.00000 0.872001
117300.00000 0.87168
117310.00000 0.871366
117320.00000 0.871053
117330.00000 0.870744
117340.00000 0.87044
117350.00000 0.870141
117360.00000 0.86985
117370.00000 0.869567
117380.00000 0.869293
117390.00000 0.869024
117400.00000 0.868763
117410.00000 0.868508
117420.00000 0.868262
117430.00000 0.868024
117440.00000 0.867795
117450.00000 0.867575
117460.00000 0.867365
117470.00000 0.867163
117480.00000 0.866969
117490.00000 0.866782
117500.00000 0.8666
117510.00000 0.866422
117520.00000 0.866252
117530.00000 0.86609
117540.00000 0.865934
117550.00000 0.865782
117560.00000 0.865633
117570.00000 0.865485
117580.00000 0.865337
117590.00000 0.865192
117600.00000 0.865051
117610.00000 0.864912
117620.00000 0.864773
117630.00000 0.864631
117640.00000 0.864484
117650.00000 0.86433
117660.00000 0.864173
117670.00000 0.864015
117680.00000 0.863852
117690.00000 0.863685
117700.00000 0.86351
117710.00000 0.863326
117720.00000 0.863132
117730.00000 0.86293
117740.00000 0.862721
117750.00000 0.862504
117760.00000 0.862279
117770.00000 0.862046
117780.00000 0.861803
117790.00000 0.861551
117800.00000 0.861288
117810.00000 0.861015
117820.00000 0.860733
117830.00000 0.860444
117840.00000 0.86015
117850.00000 0.859851
117860.00000 0.859548
117870.00000 0.859236
117880.00000 0.858916
117890.00000 0.858592
117900.00000 0.858265
117910.00000 0.857937
117920.00000 0.857611
117930.00000 0.857287
117940.00000 0.856961
117950.00000 0.856633
117960.00000 0.856305
117970.00000 0.855979
117980.00000 0.855657
117990.00000 0.855342
118000.00000 0.855034
118010.00000 0.854729
118020.00000 0.854429
118030.00000 0.854133
118040.00000 0.853842
118050.00000 0.853556
118060.00000 0.853276
118070.00000 0.853002
118080.00000 0.852735
118090.00000 0.852473
118100.00000 0.852217
118110.00000 0.851965
118120.00000 0.851715
118130.00000 0.851467
118140.00000 0.85122
118150.00000 0.850979
118160.00000 0.850741
118170.00000 0.850506
118180.00000 0.85027
118190.00000 0.850034
118200.00000 0.849794
118210.00000 0.849552
118220.00000 0.849309
118230.00000 0.849066
118240.00000 0.848821
118250.00000 0.848573
118260.00000 0.848321
118270.00000 0.848064
118280.00000 0.847801
118290.00000 0.847534
118300.00000 0.847264
118310.00000 0.846989
118320.00000 0.84671
118330.00000 0.846425
118340.00000 0.846136
118350.00000 0.845842
118360.00000 0.845542
118370.00000 0.845237
118380.00000 0.844927
118390.00000 0.844613
118400.00000 0.844296
118410.00000 0.843975
118420.00000 0.84365
118430.00000 0.843321
118440.00000 0.842988
118450.00000 0.842651
118460.00000 0.842312
118470.00000 0.84197
118480.00000 0.841626
118490.00000 0.841281
118500.00000 0.840933
118510.00000 0.840582
118520.00000 0.840229
118530.00000 0.839875
118540.00000 0.83952
118550.00000 0.839165
118560.00000 0.83881
118570.00000 0.838454
118580.00000 0.838096
118590.00000 0.837739
118600.00000 0.83738
118610.00000 0.837022
118620.00000 0.836664
118630.00000 0.836307
118640.00000 0.83595
118650.00000 0.835593
118660.00000 0.835235
118670.00000 0.834878
118680.00000 0.834521
118690.00000 0.834163
118700.00000 0.833805
118710.00000 0.833447
118720.00000 0.833089
118730.00000 0.832731
118740.00000 0.832373
118750.00000 0.832013
118760.00000 0.831652
118770.00000 0.83129
118780.00000 0.830927
118790.00000 0.830562
118800.00000 0.830197
118810.00000 0.82983
118820.00000 0.829463
118830.00000 0.829095
118840.00000 0.828727
118850.00000 0.828356
118860.00000 0.827985
118870.00000 0.827612
118880.00000 0.82724
118890.00000 0.826868
118900.00000 0.826498
118910.00000 0.82613
118920.00000 0.825761
118930.00000 0.825392
118940.00000 0.825023
118950.00000 0.824658
118960.00000 0.824296
118970.00000 0.823941
118980.00000 0.823594
118990.00000 0.823249
119000.00000 0.822908
119010.00000 0.822571
119020.00000 0.822241
119030.00000 0.82192
119040.00000 0.821609
119050.00000 0.821309
119060.00000 0.821018
119070.00000 0.820736
119080.00000 0.820462
119090.00000 0.820198
119100.00000 0.819946
119110.00000 0.819706
119120.00000 0.819479
119130.00000 0.819266
119140.00000 0.819065
119150.00000 0.818876
119160.00000 0.818698
119170.00000 0.818531
119180.00000 0.818375
119190.00000 0.818229
119200.00000 0.818094
119210.00000 0.817972
119220.00000 0.817861
119230.00000 0.81776
119240.00000 0.817666
119250.00000 0.817578
119260.00000 0.817494
119270.00000 0.817417
119280.00000 0.817349
119290.00000 0.817288
119300.00000 0.817232
119310.00000 0.81718
119320.00000 0.81713
119330.00000 0.81708
119340.00000 0.817031
119350.00000 0.816986
119360.00000 0.816943
119370.00000 0.816902
119380.00000 0.816862
119390.00000 0.816823
119400.00000 0.816784
119410.00000 0.816745
119420.00000 0.816707
119430.00000 0.816669
119440.00000 0.816633
119450.00000 0.816596
119460.00000 0.816561
119470.00000 0.816525
119480.00000 0.81649
119490.00000 0.816455
119500.00000 0.81642
119510.00000 0.816387
119520.00000 0.816353
119530.00000 0.816319
119540.00000 0.816286
119550.00000 0.816252
119560.00000 0.816219
119570.00000 0.816187
119580.00000 0.816154
119590.00000 0.816122
119600.00000 0.816088
119610.00000 0.816054
119620.00000 0.816018
119630.00000 0.81598
119640.00000 0.815942
119650.00000 0.815903
119660.00000 0.815863
119670.00000 0.815822
119680.00000 0.81578
119690.00000 0.815738
119700.00000 0.815695
119710.00000 0.81565
119720.00000 0.815604
119730.00000 0.815558
119740.00000 0.815512
119750.00000 0.815468
119760.00000 0.815425
119770.00000 0.815383
119780.00000 0.81534
119790.00000 0.815299
119800.00000 0.815258
119810.00000 0.81522
119820.00000 0.815185
119830.00000 0.815155
119840.00000 0.815128
119850.00000 0.815105
119860.00000 0.815084
119870.00000 0.815066
119880.00000 0.815052
119890.00000 0.815041
119900.00000 0.815032
119910.00000 0.815028
119920.00000 0.815028
119930.00000 0.815031
119940.00000 0.815038
119950.00000 0.815047
119960.00000 0.815057
119970.00000 0.815067
119980.00000 0.815077
119990.00000 0.815089
120000.00000 0.815104
120010.00000 0.815119
120020.00000 0.815135
120030.00000 0.815149
120040.00000 0.815161
120050.00000 0.81517
120060.00000 0.815177
120070.00000 0.815183
120080.00000 0.815188
120090.00000 0.815191
120100.00000 0.815191
120110.00000 0.81519
120120.00000 0.815185
120130.00000 0.815178
120140.00000 0.815167
120150.00000 0.815154
120160.00000 0.815139
120170.00000 0.815122
120180.00000 0.815105
120190.00000 0.815087
120200.00000 0.815068
120210.00000 0.815047
120220.00000 0.815024
120230.00000 0.815
120240.00000 0.814977
120250.00000 0.814955
120260.00000 0.814937
120270.00000 0.814921
120280.00000 0.814905
120290.00000 0.81489
120300.00000 0.814877
120310.00000 0.814867
120320.00000 0.814861
120330.00000 0.814859
120340.00000 0.814864
120350.00000 0.814873
120360.00000 0.814886
120370.00000 0.814903
120380.00000 0.814925
120390.00000 0.814952
120400.00000 0.814985
120410.00000 0.815024
120420.00000 0.81507
120430.00000 0.815122
120440.00000 0.81518
120450.00000 0.815243
120460.00000 0.815312
120470.00000 0.815385
120480.00000 0.815463
120490.00000 0.815546
120500.00000 0.815636
120510.00000 0.815731
120520.00000 0.815831
120530.00000 0.815935
120540.00000 0.816042
120550.00000 0.81615
120560.00000 0.81626
120570.00000 0.816373
120580.00000 0.816491
120590.00000 0.816611
120600.00000 0.816732
120610.00000 0.816854
120620.00000 0.816976
120630.00000 0.817098
120640.00000 0.817219
120650.00000 0.817342
120660.00000 0.817465
120670.00000 0.817588
120680.00000 0.817711
120690.00000 0.817833
120700.00000 0.817955
120710.00000 0.818075
120720.00000 0.818194
120730.00000 0.818312
120740.00000 0.818431
120750.00000 0.818549
120760.00000 0.818668
120770.00000 0.818787
120780.00000 0.818907
120790.00000 0.819026
120800.00000 0.819146
120810.00000 0.819266
120820.00000 0.819387
120830.00000 0.819509
120840.00000 0.819633
120850.00000 0.81976
120860.00000 0.819887
120870.00000 0.820016
120880.00000 0.820147
120890.00000 0.820279
120900.00000 0.820412
120910.00000 0.820548
120920.00000 0.820686
120930.00000 0.820827
120940.00000 0.82097
120950.00000 0.821115
120960.00000 0.821262
120970.00000 0.82141
120980.00000 0.821558
120990.00000 0.821706
121000.00000 0.821855
121010.00000 0.822005
121020.00000 0.822156
121030.00000 0.822308
121040.00000 0.822459
121050.00000 0.822609
121060.00000 0.822757
121070.00000 0.822902
121080.00000 0.823047
121090.00000 0.823191
121100.00000 0.823334
121110.00000 0.823475
121120.00000 0.823613
121130.00000 0.823749
121140.00000 0.823881
121150.00000 0.824011
121160.00000 0.824137
121170.00000 0.824261
121180.00000 0.824383
121190.00000 0.824502
121200.00000 0.82462
121210.00000 0.824736
121220.00000 0.824851
121230.00000 0.824962
121240.00000 0.825071
121250.00000 0.825179
121260.00000 0.825286
121270.00000 0.825393
121280.00000 0.825501
121290.00000 0.825611
121300.00000 0.825719
121310.00000 0.825827
121320.00000 0.825935
121330.00000 0.826045
121340.00000 0.826156
121350.00000 0.82627
121360.00000 0.826388
121370.00000 0.826508
121380.00000 0.826631
121390.00000 0.826755
121400.00000 0.826883
121410.00000 0.827013
121420.00000 0.827146
121430.00000 0.827283
121440.00000 0.827423
121450.00000 0.827568
121460.00000 0.827715
121470.00000 0.827866
121480.00000 0.82802
121490.00000 0.828175
121500.00000 0.828332
121510.00000 0.82849
121520.00000 0.828652
121530.00000 0.828816
121540.00000 0.828983
121550.00000 0.829151
121560.00000 0.829318
121570.00000 0.829485
121580.00000 0.82965
121590.00000 0.829814
121600.00000 0.829979
121610.00000 0.830144
121620.00000 0.830308
121630.00000 0.83047
121640.00000 0.83063
121650.00000 0.830786
121660.00000 0.830937
121670.00000 0.831086
121680.00000 0.831233
121690.00000 0.831377
121700.00000 0.831518
121710.00000 0.831656
121720.00000 0.831792
121730.00000 0.831925
121740.00000 0.832055
121750.00000 0.83218
121760.00000 0.832303
121770.00000 0.832424
121780.00000 0.832543
121790.00000 0.832662
121800.00000 0.832781
121810.00000 0.8329
121820.00000 0.833018
121830.00000 0.833133
121840.00000 0.833248
121850.00000 0.833364
121860.00000 0.833481
121870.00000 0.833601
121880.00000 0.833723
121890.00000 0.833847
121900.00000 0.833972
121910.00000 0.834099
121920.00000 0.834228
121930.00000 0.834358
121940.00000 0.834491
121950.00000 0.834625
121960.00000 0.834762
121970.00000 0.834902
121980.00000 0.835045
121990.00000 0.835188
122000.00000 0.835333
122010.00000 0.835478
122020.00000 0.835622
122030.00000 0.835765
122040.00000 0.835909
122050.00000 0.836055
122060.00000 0.8362
122070.00000 0.836344
122080.00000 0.836486
122090.00000 0.836625
122100.00000 0.836759
122110.00000 0.83689
122120.00000 0.837018
122130.00000 0.837145
122140.00000 0.837268
122150.00000 0.837387
122160.00000 0.837501
122170.00000 0.837609
122180.00000 0.837712
122190.00000 0.837808
122200.00000 0.837901
122210.00000 0.837988
122220.00000 0.83807
122230.00000 0.838148
122240.00000 0.838221
122250.00000 0.838289
122260.00000 0.838352
122270.00000 0.838409
122280.00000 0.838461
122290.00000 0.838509
122300.00000 0.838553
122310.00000 0.838594
122320.00000 0.838633
122330.00000 0.838669
122340.00000 0.838701
122350.00000 0.838729
122360.00000 0.838754
122370.00000 0.838776
122380.00000 0.838797
122390.00000 0.838816
122400.00000 0.838834
122410.00000 0.838851
122420.00000 0.838867
122430.00000 0.838881
122440.00000 0.838893
122450.00000 0.838903
122460.00000 0.838911
122470.00000 0.838918
122480.00000 0.838923
122490.00000 0.838927
122500.00000 0.838929
122510.00000 0.83893
122520.00000 0.838929
122530.00000 0.838925
122540.00000 0.83892
122550.00000 0.838912
122560.00000 0.838902
122570.00000 0.83889
122580.00000 0.838876
122590.00000 0.83886
122600.00000 0.838841
122610.00000 0.83882
122620.00000 0.838796
122630.00000 0.83877
122640.00000 0.838741
122650.00000 0.838709
122660.00000 0.838675
122670.00000 0.838638
122680.00000 0.838599
122690.00000 0.838558
122700.00000 0.838516
122710.00000 0.838471
122720.00000 0.838425
122730.00000 0.838377
122740.00000 0.838326
122750.00000 0.838273
122760.00000 0.838217
122770.00000 0.838159
122780.00000 0.838097
122790.00000 0.838033
122800.00000 0.837967
122810.00000 0.837899
122820.00000 0.837827
122830.00000 0.837752
122840.00000 0.837674
122850.00000 0.837592
122860.00000 0.837506
122870.00000 0.837417
122880.00000 0.837325
122890.00000 0.83723
122900.00000 0.837131
122910.00000 0.837027
122920.00000 0.836918
122930.00000 0.836804
122940.00000 0.836684
122950.00000 0.83656
122960.00000 0.836431
122970.00000 0.836298
122980.00000 0.836162
122990.00000 0.836021
123000.00000 0.835878
123010.00000 0.835731
123020.00000 0.835579
123030.00000 0.835423
123040.00000 0.835264
123050.00000 0.835102
123060.00000 0.834938
123070.00000 0.834772
123080.00000 0.834605
123090.00000 0.834435
123100.00000 0.834262
123110.00000 0.834086
123120.00000 0.83391
123130.00000 0.833732
123140.00000 0.833554
123150.00000 0.833376
123160.00000 0.833199
123170.00000 0.833021
123180.00000 0.832844
123190.00000 0.832666
123200.00000 0.832487
123210.00000 0.832307
123220.00000 0.832126
123230.00000 0.831944
123240.00000 0.831761
123250.00000 0.831578
123260.00000 0.831394
123270.00000 0.831209
123280.00000 0.831021
123290.00000 0.83083
123300.00000 0.830636
123310.00000 0.830439
123320.00000 0.83024
123330.00000 0.830039
123340.00000 0.829835
123350.00000 0.829628
123360.00000 0.829416
123370.00000 0.829199
123380.00000 0.828975
123390.00000 0.828746
123400.00000 0.828512
123410.00000 0.828272
123420.00000 0.828028
123430.00000 0.827779
123440.00000 0.827524
123450.00000 0.827263
123460.00000 0.826996
123470.00000 0.826723
123480.00000 0.826445
123490.00000 0.82616
123500.00000 0.82587
123510.00000 0.825576
123520.00000 0.825276
123530.00000 0.824972
123540.00000 0.824663
123550.00000 0.824348
123560.00000 0.824027
123570.00000 0.823702
123580.00000 0.823372
123590.00000 0.82304
123600.00000 0.822704
123610.00000 0.822368
123620.00000 0.822028
123630.00000 0.821684
123640.00000 0.821337
123650.00000 0.820987
123660.00000 0.820636
123670.00000 0.820283
123680.00000 0.819929
123690.00000 0.819576
123700.00000 0.819221
123710.00000 0.818864
123720.00000 0.818506
123730.00000 0.818147
123740.00000 0.817788
123750.00000 0.817428
123760.00000 0.817069
123770.00000 0.816711
123780.00000 0.816353
123790.00000 0.815995
123800.00000 0.815637
123810.00000 0.815278
123820.00000 0.814918
123830.00000 0.814558
123840.00000 0.814196
123850.00000 0.813834
123860.00000 0.813473
123870.00000 0.813111
123880.00000 0.812747
123890.00000 0.812382
123900.00000 0.812013
123910.00000 0.81164
123920.00000 0.811263
123930.00000 0.810884
123940.00000 0.810504
123950.00000 0.81012
123960.00000 0.809732
123970.00000 0.809339
123980.00000 0.80894
123990.00000 0.808535
124000.00000 0.808122
124010.00000 0.807704
124020.00000 0.80728
124030.00000 0.806851
124040.00000 0.806416
124050.00000 0.805974
124060.00000 0.805527
124070.00000 0.805073
124080.00000 0.804612
124090.00000 0.804143
124100.00000 0.803668
124110.00000 0.803187
124120.00000 0.802701
124130.00000 0.802212
124140.00000 0.801721
124150.00000 0.801227
124160.00000 0.800728
124170.00000 0.800224
124180.00000 0.799715
124190.00000 0.799205
124200.00000 0.798694
124210.00000 0.798185
124220.00000 0.797678
124230.00000 0.797176
124240.00000 0.796672
124250.00000 0.796168
124260.00000 0.795665
124270.00000 0.795164
124280.00000 0.794668
124290.00000 0.794176
124300.00000 0.79369
124310.00000 0.793211
124320.00000 0.792736
124330.00000 0.792265
124340.00000 0.791798
124350.00000 0.791336
124360.00000 0.790879
124370.00000 0.790426
124380.00000 0.789979
124390.00000 0.789537
124400.00000 0.789101
124410.00000 0.788671
124420.00000 0.788244
124430.00000 0.787821
124440.00000 0.7874
124450.00000 0.786982
124460.00000 0.786565
124470.00000 0.786151
124480.00000 0.785742
124490.00000 0.785335
124500.00000 0.78493
124510.00000 0.784525
124520.00000 0.784121
124530.00000 0.783716
124540.00000 0.78331
124550.00000 0.782905
124560.00000 0.782501
124570.00000 0.782096
124580.00000 0.781692
124590.00000 0.781286
124600.00000 0.78088
124610.00000 0.780471
124620.00000 0.78006
124630.00000 0.779649
124640.00000 0.779237
124650.00000 0.778824
124660.00000 0.778409
124670.00000 0.777993
124680.00000 0.777575
124690.00000 0.777155
124700.00000 0.776733
124710.00000 0.776311
124720.00000 0.775887
124730.00000 0.775461
124740.00000 0.775033
124750.00000 0.774603
124760.00000 0.774171
124770.00000 0.773737
124780.00000 0.773301
124790.00000 0.772863
124800.00000 0.772422
124810.00000 0.77198
124820.00000 0.771535
124830.00000 0.771089
124840.00000 0.77064
124850.00000 0.770189
124860.00000 0.769735
124870.00000 0.769279
124880.00000 0.768821
124890.00000 0.768361
124900.00000 0.767899
124910.00000 0.767435
124920.00000 0.76697
124930.00000 0.766503
124940.00000 0.766033
124950.00000 0.765561
124960.00000 0.765087
124970.00000 0.764612
124980.00000 0.764137
124990.00000 0.763662
125000.00000 0.763189
125010.00000 0.762715
125020.00000 0.76224
125030.00000 0.761764
125040.00000 0.761289
125050.00000 0.760814
125060.00000 0.760341
125070.00000 0.759869
125080.00000 0.759401
125090.00000 0.758933
125100.00000 0.758466
125110.00000 0.758
125120.00000 0.757536
125130.00000 0.757074
125140.00000 0.756614
125150.00000 0.756158
125160.00000 0.755704
125170.00000 0.755254
125180.00000 0.754806
125190.00000 0.75436
125200.00000 0.753918
125210.00000 0.753477
125220.00000 0.753038
125230.00000 0.752602
125240.00000 0.752167
125250.00000 0.751734
125260.00000 0.751304
125270.00000 0.750875
125280.00000 0.750449
125290.00000 0.750025
125300.00000 0.749603
125310.00000 0.749184
125320.00000 0.748766
125330.00000 0.748351
125340.00000 0.747938
125350.00000 0.747527
125360.00000 0.747118
125370.00000 0.746713
125380.00000 0.74631
125390.00000 0.745911
125400.00000 0.745514
125410.00000 0.745119
125420.00000 0.744726
125430.00000 0.744337
125440.00000 0.743951
125450.00000 0.74357
125460.00000 0.743194
125470.00000 0.742826
125480.00000 0.742462
125490.00000 0.742103
125500.00000 0.741748
125510.00000 0.741399
125520.00000 0.741055
125530.00000 0.740718
125540.00000 0.740389
125550.00000 0.740067
125560.00000 0.739752
125570.00000 0.739444
125580.00000 0.739143
125590.00000 0.738848
125600.00000 0.738561
125610.00000 0.73828
125620.00000 0.738007
125630.00000 0.737741
125640.00000 0.737483
125650.00000 0.737234
125660.00000 0.736992
125670.00000 0.736756
125680.00000 0.736527
125690.00000 0.736302
125700.00000 0.73608
125710.00000 0.735862
125720.00000 0.73565
125730.00000 0.735443
125740.00000 0.735242
125750.00000 0.735044
125760.00000 0.734849
125770.00000 0.734656
125780.00000 0.734464
125790.00000 0.734271
125800.00000 0.734081
125810.00000 0.733893
125820.00000 0.733707
125830.00000 0.733523
125840.00000 0.733339
125850.00000 0.733155
125860.00000 0.732972
125870.00000 0.732787
125880.00000 0.732602
125890.00000 0.732416
125900.00000 0.732231
125910.00000 0.732046
125920.00000 0.731863
125930.00000 0.731681
125940.00000 0.731502
125950.00000 0.731325
125960.00000 0.731148
125970.00000 0.730972
125980.00000 0.730798
125990.00000 0.730626
126000.00000 0.730457
126010.00000 0.730293
126020.00000 0.730134
126030.00000 0.72998
126040.00000 0.729829
126050.00000 0.729681
126060.00000 0.729536
126070.00000 0.729397
126080.00000 0.729264
126090.00000 0.729137
126100.00000 0.729017
126110.00000 0.728906
126120.00000 0.728799
126130.00000 0.728698
126140.00000 0.728603
126150.00000 0.728516
126160.00000 0.728436
126170.00000 0.728364
126180.00000 0.728302
126190.00000 0.728249
126200.00000 0.728203
126210.00000 0.728165
126220.00000 0.728135
126230.00000 0.728114
126240.00000 0.728102
126250.00000 0.728099
126260.00000 0.728106
126270.00000 0.728124
126280.00000 0.728151
126290.00000 0.728188
126300.00000 0.728234
126310.00000 0.728289
126320.00000 0.728353
126330.00000 0.728426
126340.00000 0.728507
126350.00000 0.728598
126360.00000 0.728699
126370.00000 0.72881
126380.00000 0.72893
126390.00000 0.729058
126400.00000 0.729192
126410.00000 0.729332
126420.00000 0.729476
126430.00000 0.729626
126440.00000 0.729784
126450.00000 0.72995
126460.00000 0.730122
126470.00000 0.730298
126480.00000 0.730477
126490.00000 0.730657
126500.00000 0.730837
126510.00000 0.731018
126520.00000 0.731202
126530.00000 0.73139
126540.00000 0.731579
126550.00000 0.73177
126560.00000 0.731959
126570.00000 0.732147
126580.00000 0.732333
126590.00000 0.732516
126600.00000 0.732697
126610.00000 0.732878
126620.00000 0.733057
126630.00000 0.733235
126640.00000 0.733413
126650.00000 0.73359
126660.00000 0.733767
126670.00000 0.733942
126680.00000 0.734115
126690.00000 0.734286
126700.00000 0.734456
126710.00000 0.734627
126720.00000 0.7348
126730.00000 0.734975
126740.00000 0.735155
126750.00000 0.735338
126760.00000 0.735521
126770.00000 0.735705
126780.00000 0.735892
126790.00000 0.736082
126800.00000 0.736278
126810.00000 0.73648
126820.00000 0.736691
126830.00000 0.736908
126840.00000 0.737132
126850.00000 0.73736
126860.00000 0.737595
126870.00000 0.737836
126880.00000 0.738084
126890.00000 0.73834
126900.00000 0.738604
126910.00000 0.738878
126920.00000 0.73916
126930.00000 0.73945
126940.00000 0.739748
126950.00000 0.740052
126960.00000 0.740364
126970.00000 0.740681
126980.00000 0.741004
126990.00000 0.741332
127000.00000 0.741669
127010.00000 0.742014
127020.00000 0.742364
127030.00000 0.74272
127040.00000 0.743079
127050.00000 0.743441
127060.00000 0.743805
127070.00000 0.74417
127080.00000 0.74454
127090.00000 0.744914
127100.00000 0.745292
127110.00000 0.745671
127120.00000 0.746051
127130.00000 0.74643
127140.00000 0.746807
127150.00000 0.74718
127160.00000 0.747553
127170.00000 0.747925
127180.00000 0.748297
127190.00000 0.748667
127200.00000 0.749037
127210.00000 0.749404
127220.00000 0.74977
127230.00000 0.750133
127240.00000 0.750494
127250.00000 0.750853
127260.00000 0.75121
127270.00000 0.751566
127280.00000 0.75192
127290.00000 0.752274
127300.00000 0.752626
127310.00000 0.752978
127320.00000 0.753329
127330.00000 0.753677
127340.00000 0.754023
127350.00000 0.75437
127360.00000 0.754716
127370.00000 0.755064
127380.00000 0.755414
127390.00000 0.755767
127400.00000 0.756122
127410.00000 0.756479
127420.00000 0.756837
127430.00000 0.757197
127440.00000 0.757558
127450.00000 0.757918
127460.00000 0.758279
127470.00000 0.75864
127480.00000 0.759002
127490.00000 0.759365
127500.00000 0.759729
127510.00000 0.760093
127520.00000 0.760456
127530.00000 0.760818
127540.00000 0.761178
127550.00000 0.761535
127560.00000 0.76189
127570.00000 0.762247
127580.00000 0.762604
127590.00000 0.762959
127600.00000 0.76331
127610.00000 0.763655
127620.00000 0.763994
127630.00000 0.764324
127640.00000 0.764646
127650.00000 0.764963
127660.00000 0.765274
127670.00000 0.765579
127680.00000 0.765877
127690.00000 0.766168
127700.00000 0.76645
127710.00000 0.766723
127720.00000 0.766987
127730.00000 0.767244
127740.00000 0.767494
127750.00000 0.767736
127760.00000 0.76797
127770.00000 0.768193
127780.00000 0.768406
127790.00000 0.768607
127800.00000 0.768797
127810.00000 0.768975
127820.00000 0.769144
127830.00000 0.769302
127840.00000 0.769449
127850.00000 0.769586
127860.00000 0.769712
127870.00000 0.769828
127880.00000 0.769934
127890.00000 0.77003
127900.00000 0.770117
127910.00000 0.770194
127920.00000 0.770261
127930.00000 0.770315
127940.00000 0.770356
127950.00000 0.770384
127960.00000 0.770397
127970.00000 0.770398
127980.00000 0.770387
127990.00000 0.770364
128000.00000 0.770328
128010.00000 0.770278
128020.00000 0.770212
128030.00000 0.770131
128040.00000 0.770033
128050.00000 0.769919
128060.00000 0.769793
128070.00000 0.769653
128080.00000 0.769497
128090.00000 0.769324
128100.00000 0.769133
128110.00000 0.768921
128120.00000 0.768687
128130.00000 0.768432
128140.00000 0.768159
128150.00000 0.767867
128160.00000 0.767556
128170.00000 0.767224
128180.00000 0.766871
128190.00000 0.766496
128200.00000 0.766097
128210.00000 0.765674
128220.00000 0.765231
128230.00000 0.764767
128240.00000 0.76428
128250.00000 0.763771
128260.00000 0.763238
128270.00000 0.76268
128280.00000 0.762098
128290.00000 0.761489
128300.00000 0.760856
128310.00000 0.760199
128320.00000 0.759518
128330.00000 0.758812
128340.00000 0.758082
128350.00000 0.757325
128360.00000 0.756542
128370.00000 0.755732
128380.00000 0.754896
128390.00000 0.754035
128400.00000 0.753148
128410.00000 0.752236
128420.00000 0.751296
128430.00000 0.75033
128440.00000 0.749336
128450.00000 0.748314
128460.00000 0.747264
128470.00000 0.746187
128480.00000 0.745083
128490.00000 0.743952
128500.00000 0.742794
128510.00000 0.741607
128520.00000 0.740392
128530.00000 0.739148
128540.00000 0.737876
128550.00000 0.736575
128560.00000 0.735246
128570.00000 0.733889
128580.00000 0.732503
128590.00000 0.73109
128600.00000 0.729648
128610.00000 0.728178
128620.00000 0.72668
128630.00000 0.725154
128640.00000 0.7236
128650.00000 0.722018
128660.00000 0.720408
128670.00000 0.71877
128680.00000 0.717103
128690.00000 0.715407
128700.00000 0.713683
128710.00000 0.711929
128720.00000 0.710148
128730.00000 0.708338
128740.00000 0.706499
128750.00000 0.704632
128760.00000 0.702737
128770.00000 0.700812
128780.00000 0.69886
128790.00000 0.696879
128800.00000 0.694869
128810.00000 0.692832
128820.00000 0.690766
128830.00000 0.688672
128840.00000 0.686549
128850.00000 0.684396
128860.00000 0.682214
128870.00000 0.680002
128880.00000 0.677759
128890.00000 0.675486
128900.00000 0.673184
128910.00000 0.670853
128920.00000 0.668494
128930.00000 0.666108
128940.00000 0.663696
128950.00000 0.661258
128960.00000 0.658792
128970.00000 0.656297
128980.00000 0.653774
128990.00000 0.651225
129000.00000 0.648651
129010.00000 0.646051
129020.00000 0.643429
129030.00000 0.640783
129040.00000 0.638114
129050.00000 0.635418
129060.00000 0.632696
129070.00000 0.62995
129080.00000 0.627182
129090.00000 0.624393
129100.00000 0.621585
129110.00000 0.61876
129120.00000 0.615918
129130.00000 0.613057
129140.00000 0.610174
129150.00000 0.607273
129160.00000 0.604352
129170.00000 0.601414
129180.00000 0.598458
129190.00000 0.595486
129200.00000 0.592498
129210.00000 0.589492
129220.00000 0.586467
129230.00000 0.583424
129240.00000 0.580365
129250.00000 0.577289
129260.00000 0.5742
129270.00000 0.571098
129280.00000 0.567983
129290.00000 0.564856
129300.00000 0.561713
129310.00000 0.558555
129320.00000 0.555384
129330.00000 0.552199
129340.00000 0.549003
129350.00000 0.545797
129360.00000 0.542582
129370.00000 0.539359
129380.00000 0.536122
129390.00000 0.532871
129400.00000 0.52961
129410.00000 0.526339
129420.00000 0.523061
129430.00000 0.519777
129440.00000 0.516491
129450.00000 0.513202
129460.00000 0.50991
129470.00000 0.506609
129480.00000 0.503303
129490.00000 0.499992
129500.00000 0.496678
129510.00000 0.493362
129520.00000 0.490046
129530.00000 0.486732
129540.00000 0.483418
129550.00000 0.480101
129560.00000 0.476781
129570.00000 0.47346
129580.00000 0.470139
129590.00000 0.466821
129600.00000 0.463505
129610.00000 0.460195
129620.00000 0.456891
129630.00000 0.453589
129640.00000 0.450289
129650.00000 0.446991
129660.00000 0.443697
129670.00000 0.440408
129680.00000 0.437126
129690.00000 0.433852
129700.00000 0.430587
129710.00000 0.427329
129720.00000 0.424076
129730.00000 0.420829
129740.00000 0.417588
129750.00000 0.414356
129760.00000 0.411134
129770.00000 0.407923
129780.00000 0.404725
129790.00000 0.40154
129800.00000 0.398365
129810.00000 0.395199
129820.00000 0.392044
129830.00000 0.3889
129840.00000 0.385769
129850.00000 0.382652
129860.00000 0.379551
129870.00000 0.376465
129880.00000 0.373395
129890.00000 0.370337
129900.00000 0.367293
129910.00000 0.364263
129920.00000 0.361248
129930.00000 0.358249
129940.00000 0.355266
129950.00000 0.3523
129960.00000 0.349351
129970.00000 0.346418
129980.00000 0.343499
129990.00000 0.340597
130000.00000 0.337711
130010.00000 0.334842
130020.00000 0.33199
130030.00000 0.329155
130040.00000 0.326338
130050.00000 0.323538
130060.00000 0.320755
130070.00000 0.31799
130080.00000 0.315241
130090.00000 0.312509
130100.00000 0.309794
130110.00000 0.307097
130120.00000 0.304417
130130.00000 0.301755
130140.00000 0.299109
130150.00000 0.29648
130160.00000 0.293868
130170.00000 0.291274
130180.00000 0.288697
130190.00000 0.286138
130200.00000 0.283596
130210.00000 0.281073
130220.00000 0.278568
130230.00000 0.276081
130240.00000 0.273612
130250.00000 0.27116
130260.00000 0.268726
130270.00000 0.266308
130280.00000 0.263908
130290.00000 0.261525
130300.00000 0.259159
130310.00000 0.256809
130320.00000 0.254478
130330.00000 0.252163
130340.00000 0.249865
130350.00000 0.247584
130360.00000 0.24532
130370.00000 0.243072
130380.00000 0.24084
130390.00000 0.238625
130400.00000 0.236427
130410.00000 0.234246
130420.00000 0.232081
130430.00000 0.229932
130440.00000 0.2278
130450.00000 0.225683
130460.00000 0.223583
130470.00000 0.221497
130480.00000 0.219427
130490.00000 0.217373
130500.00000 0.215335
130510.00000 0.213313
130520.00000 0.211307
130530.00000 0.209318
130540.00000 0.207346
130550.00000 0.205391
130560.00000 0.203451
130570.00000 0.201528
130580.00000 0.199621
130590.00000 0.197731
130600.00000 0.195858
130610.00000 0.194002
130620.00000 0.192163
130630.00000 0.190341
130640.00000 0.188538
130650.00000 0.186751
130660.00000 0.184982
130670.00000 0.18323
130680.00000 0.181495
130690.00000 0.179777
130700.00000 0.178077
130710.00000 0.176394
130720.00000 0.174729
130730.00000 0.173082
130740.00000 0.171452
130750.00000 0.16984
130760.00000 0.168245
130770.00000 0.166668
130780.00000 0.165107
130790.00000 0.163563
130800.00000 0.162035
130810.00000 0.160524
130820.00000 0.159031
130830.00000 0.157555
130840.00000 0.156096
130850.00000 0.154654
130860.00000 0.153227
130870.00000 0.151816
130880.00000 0.150419
130890.00000 0.149036
130900.00000 0.147669
130910.00000 0.146317
130920.00000 0.144981
130930.00000 0.14366
130940.00000 0.142353
130950.00000 0.141061
130960.00000 0.139781
130970.00000 0.138515
130980.00000 0.137261
130990.00000 0.136021
131000.00000 0.134797
131010.00000 0.133586
131020.00000 0.132388
131030.00000 0.131202
131040.00000 0.130028
131050.00000 0.128863
131060.00000 0.127709
131070.00000 0.126564
131080.00000 0.125431
131090.00000 0.124309
131100.00000 0.123198
131110.00000 0.122098
131120.00000 0.121008
131130.00000 0.119926
131140.00000 0.118854
131150.00000 0.11779
131160.00000 0.116735
131170.00000 0.115692
131180.00000 0.114657
131190.00000 0.113632
131200.00000 0.112615
131210.00000 0.111606
131220.00000 0.110605
131230.00000 0.109609
131240.00000 0.108621
131250.00000 0.107638
131260.00000 0.106664
131270.00000 0.105696
131280.00000 0.104737
131290.00000 0.103785
131300.00000 0.102841
131310.00000 0.101905
131320.00000 0.100978
131330.00000 0.10006
131340.00000 0.099149
131350.00000 0.098247
131360.00000 0.097353
131370.00000 0.096466
131380.00000 0.095588
131390.00000 0.094718
131400.00000 0.093856
131410.00000 0.093003
131420.00000 0.092156
131430.00000 0.091318
131440.00000 0.090487
131450.00000 0.089664
131460.00000 0.08885
131470.00000 0.088045
131480.00000 0.08725
131490.00000 0.086464
131500.00000 0.085688
131510.00000 0.084922
131520.00000 0.084166
131530.00000 0.083419
131540.00000 0.082681
131550.00000 0.081951
131560.00000 0.081228
131570.00000 0.080513
131580.00000 0.079804
131590.00000 0.079103
131600.00000 0.07841
131610.00000 0.077724
131620.00000 0.077047
131630.00000 0.076376
131640.00000 0.075713
131650.00000 0.075056
131660.00000 0.074406
131670.00000 0.073763
131680.00000 0.073128
131690.00000 0.072501
131700.00000 0.071882
131710.00000 0.071269
131720.00000 0.070662
131730.00000 0.07006
131740.00000 0.069462
131750.00000 0.068869
131760.00000 0.06828
131770.00000 0.067695
131780.00000 0.067115
131790.00000 0.06654
131800.00000 0.065971
131810.00000 0.065406
131820.00000 0.064847
131830.00000 0.064293
131840.00000 0.063745
131850.00000 0.063202
131860.00000 0.062664
131870.00000 0.062133
131880.00000 0.061606
131890.00000 0.061085
131900.00000 0.060568
131910.00000 0.060056
131920.00000 0.059549
131930.00000 0.059046
131940.00000 0.058547
131950.00000 0.058053
131960.00000 0.057563
131970.00000 0.057078
131980.00000 0.056599
131990.00000 0.056125
132000.00000 0.055657
132010.00000 0.055195
132020.00000 0.054739
132030.00000 0.05429
132040.00000 0.053846
132050.00000 0.053409
132060.00000 0.052977
132070.00000 0.05255
132080.00000 0.052128
132090.00000 0.05171
132100.00000 0.051297
132110.00000 0.050888
132120.00000 0.050485
132130.00000 0.050086
132140.00000 0.049692
132150.00000 0.049303
132160.00000 0.048918
132170.00000 0.048538
132180.00000 0.048162
132190.00000 0.047789
132200.00000 0.047422
132210.00000 0.04706
132220.00000 0.046703
132230.00000 0.04635
132240.00000 0.046001
132250.00000 0.045654
132260.00000 0.04531
132270.00000 0.044967
132280.00000 0.044626
132290.00000 0.044288
132300.00000 0.043952
132310.00000 0.043619
132320.00000 0.043289
132330.00000 0.04296
132340.00000 0.042634
132350.00000 0.042309
132360.00000 0.041986
132370.00000 0.041664
132380.00000 0.041344
132390.00000 0.041026
132400.00000 0.04071
132410.00000 0.040396
132420.00000 0.040083
132430.00000 0.039772
132440.00000 0.039461
132450.00000 0.03915
132460.00000 0.038841
132470.00000 0.038532
132480.00000 0.038224
132490.00000 0.037917
132500.00000 0.037611
132510.00000 0.037307
132520.00000 0.037004
132530.00000 0.036702
132540.00000 0.036402
132550.00000 0.036104
132560.00000 0.035807
132570.00000 0.035512
132580.00000 0.035218
132590.00000 0.034925
132600.00000 0.034634
132610.00000 0.034345
132620.00000 0.034056
132630.00000 0.03377
132640.00000 0.033484
132650.00000 0.033199
132660.00000 0.032916
132670.00000 0.032634
132680.00000 0.032354
132690.00000 0.032076
132700.00000 0.0318
132710.00000 0.031525
132720.00000 0.031253
132730.00000 0.030982
132740.00000 0.030713
132750.00000 0.030446
132760.00000 0.030181
132770.00000 0.029918
132780.00000 0.029657
132790.00000 0.029398
132800.00000 0.029142
132810.00000 0.028888
132820.00000 0.028636
132830.00000 0.028386
132840.00000 0.028138
132850.00000 0.027892
132860.00000 0.027649
132870.00000 0.027409
132880.00000 0.027173
132890.00000 0.02694
132900.00000 0.02671
132910.00000 0.026484
132920.00000 0.02626
132930.00000 0.026039
132940.00000 0.025822
132950.00000 0.025607
132960.00000 0.025396
132970.00000 0.025188
132980.00000 0.024984
132990.00000 0.024784
133000.00000 0.024587
133010.00000 0.024393
133020.00000 0.024203
133030.00000 0.024015
133040.00000 0.023831
133050.00000 0.023649
133060.00000 0.02347
133070.00000 0.023294
133080.00000 0.023121
133090.00000 0.022951
133100.00000 0.022784
133110.00000 0.02262
133120.00000 0.022458
133130.00000 0.022299
133140.00000 0.02214
133150.00000 0.021983
133160.00000 0.021828
133170.00000 0.021674
133180.00000 0.021522
133190.00000 0.021373
133200.00000 0.021225
133210.00000 0.021078
133220.00000 0.020932
133230.00000 0.020787
133240.00000 0.020643
133250.00000 0.020498
133260.00000 0.020355
133270.00000 0.020212
133280.00000 0.02007
133290.00000 0.019929
133300.00000 0.019789
133310.00000 0.019649
133320.00000 0.01951
133330.00000 0.019372
133340.00000 0.019233
133350.00000 0.019096
133360.00000 0.018958
133370.00000 0.018822
133380.00000 0.018686
133390.00000 0.018551
133400.00000 0.018416
133410.00000 0.018282
133420.00000 0.018149
133430.00000 0.018017
133440.00000 0.017886
133450.00000 0.017754
133460.00000 0.017624
133470.00000 0.017495
133480.00000 0.017366
133490.00000 0.017239
133500.00000 0.017113
133510.00000 0.016989
133520.00000 0.016866
133530.00000 0.016744
133540.00000 0.016622
133550.00000 0.016503
133560.00000 0.016384
133570.00000 0.016267
133580.00000 0.016152
133590.00000 0.016038
133600.00000 0.015926
133610.00000 0.015816
133620.00000 0.015707
133630.00000 0.0156
133640.00000 0.015494
133650.00000 0.015391
133660.00000 0.015289
133670.00000 0.015189
133680.00000 0.015092
133690.00000 0.014997
133700.00000 0.014905
133710.00000 0.014814
133720.00000 0.014726
133730.00000 0.01464
133740.00000 0.014557
133750.00000 0.014475
133760.00000 0.014396
133770.00000 0.014318
133780.00000 0.014243
133790.00000 0.01417
133800.00000 0.014099
133810.00000 0.014031
133820.00000 0.013965
133830.00000 0.013901
133840.00000 0.013839
133850.00000 0.013777
133860.00000 0.013717
133870.00000 0.013658
133880.00000 0.0136
133890.00000 0.013545
133900.00000 0.013492
133910.00000 0.013439
133920.00000 0.013388
133930.00000 0.013337
133940.00000 0.013285
133950.00000 0.013234
133960.00000 0.013181
133970.00000 0.013129
133980.00000 0.013076
133990.00000 0.013024
134000.00000 0.012972
134010.00000 0.01292
134020.00000 0.012867
134030.00000 0.012813
134040.00000 0.012759
134050.00000 0.012703
134060.00000 0.012646
134070.00000 0.012588
134080.00000 0.01253
134090.00000 0.012471
134100.00000 0.012411
134110.00000 0.012351
134120.00000 0.01229
134130.00000 0.012228
134140.00000 0.012166
134150.00000 0.012103
134160.00000 0.012038
134170.00000 0.011973
134180.00000 0.011907
134190.00000 0.011841
134200.00000 0.011775
134210.00000 0.01171
134220.00000 0.011645
134230.00000 0.01158
134240.00000 0.011516
134250.00000 0.011453
134260.00000 0.011389
134270.00000 0.011325
134280.00000 0.011262
134290.00000 0.0112
134300.00000 0.011138
134310.00000 0.011077
134320.00000 0.011017
134330.00000 0.010958
134340.00000 0.0109
134350.00000 0.010843
134360.00000 0.010786
134370.00000 0.01073
134380.00000 0.010674
134390.00000 0.010618
134400.00000 0.010563
134410.00000 0.010509
134420.00000 0.010455
134430.00000 0.010402
134440.00000 0.010349
134450.00000 0.010297
134460.00000 0.010245
134470.00000 0.010193
134480.00000 0.01014
134490.00000 0.010087
134500.00000 0.010033
134510.00000 0.009979
134520.00000 0.009924
134530.00000 0.009869
134540.00000 0.009814
134550.00000 0.009758
134560.00000 0.009702
134570.00000 0.009645
134580.00000 0.009587
134590.00000 0.009529
134600.00000 0.009469
134610.00000 0.009409
134620.00000 0.009348
134630.00000 0.009286
134640.00000 0.009224
134650.00000 0.009161
134660.00000 0.009097
134670.00000 0.009034
134680.00000 0.00897
134690.00000 0.008906
134700.00000 0.008841
134710.00000 0.008775
134720.00000 0.008709
134730.00000 0.008642
134740.00000 0.008576
134750.00000 0.00851
134760.00000 0.008444
134770.00000 0.008379
134780.00000 0.008315
134790.00000 0.008251
134800.00000 0.008186
134810.00000 0.008122
134820.00000 0.008059
134830.00000 0.007996
134840.00000 0.007933
134850.00000 0.007872
134860.00000 0.007811
134870.00000 0.007752
134880.00000 0.007693
134890.00000 0.007634
134900.00000 0.007577
134910.00000 0.00752
134920.00000 0.007464
134930.00000 0.007408
134940.00000 0.007354
134950.00000 0.0073
134960.00000 0.007247
134970.00000 0.007194
134980.00000 0.007143
134990.00000 0.007092
135000.00000 0.007042
135010.00000 0.006993
135020.00000 0.006944
135030.00000 0.006895
135040.00000 0.006847
135050.00000 0.006799
135060.00000 0.006751
135070.00000 0.006704
135080.00000 0.006658
135090.00000 0.006612
135100.00000 0.006566
135110.00000 0.00652
135120.00000 0.006474
135130.00000 0.006429
135140.00000 0.006384
135150.00000 0.006339
135160.00000 0.006294
135170.00000 0.006249
135180.00000 0.006204
135190.00000 0.00616
135200.00000 0.006116
135210.00000 0.006072
135220.00000 0.006028
135230.00000 0.005985
135240.00000 0.005942
135250.00000 0.005899
135260.00000 0.005856
135270.00000 0.005814
135280.00000 0.005772
135290.00000 0.00573
135300.00000 0.005689
135310.00000 0.005648
135320.00000 0.005609
135330.00000 0.00557
135340.00000 0.005531
135350.00000 0.005493
135360.00000 0.005455
135370.00000 0.005418
135380.00000 0.005382
135390.00000 0.005346
135400.00000 0.005311
135410.00000 0.005277
135420.00000 0.005243
135430.00000 0.005211
135440.00000 0.005179
135450.00000 0.005148
135460.00000 0.005118
135470.00000 0.005088
135480.00000 0.005059
135490.00000 0.00503
135500.00000 0.005001
135510.00000 0.004972
135520.00000 0.004945
135530.00000 0.004918
135540.00000 0.004892
135550.00000 0.004865
135560.00000 0.004839
135570.00000 0.004813
135580.00000 0.004786
135590.00000 0.004759
135600.00000 0.004731
135610.00000 0.004703
135620.00000 0.004675
135630.00000 0.004647
135640.00000 0.004618
135650.00000 0.004589
135660.00000 0.004559
135670.00000 0.004529
135680.00000 0.004497
135690.00000 0.004465
135700.00000 0.004431
135710.00000 0.004397
135720.00000 0.004361
135730.00000 0.004325
135740.00000 0.004289
135750.00000 0.004252
135760.00000 0.004214
135770.00000 0.004176
135780.00000 0.004137
135790.00000 0.004098
135800.00000 0.004057
135810.00000 0.004016
149391.00000 0.0
