# %ECSV 0.9
# ---
# datatype:
# - {name: wavelength, unit: Angstrom, datatype: float32}
# - {name: response, datatype: float32}
# meta: !!omap
# - {band_name: Si1}
# - {group_name: CanariCam}
wavelength response
59139.00000 0.0
65710.00000 0.004015
65720.00000 0.004093
65730.00000 0.004174
65740.00000 0.004253
65750.00000 0.004332
65760.00000 0.00441
65770.00000 0.004487
65780.00000 0.004564
65790.00000 0.004638
65800.00000 0.004708
65810.00000 0.004777
65820.00000 0.004844
65830.00000 0.004911
65840.00000 0.004978
65850.00000 0.005043
65860.00000 0.005109
65870.00000 0.005176
65880.00000 0.005245
65890.00000 0.005315
65900.00000 0.005387
65910.00000 0.00546
65920.00000 0.005535
65930.00000 0.005611
65940.00000 0.00569
65950.00000 0.005769
65960.00000 0.005846
65970.00000 0.00592
65980.00000 0.005992
65990.00000 0.006063
66000.00000 0.006132
66010.00000 0.006197
66020.00000 0.006258
66030.00000 0.006316
66040.00000 0.006373
66050.00000 0.006433
66060.00000 0.006495
66070.00000 0.006556
66080.00000 0.006621
66090.00000 0.006691
66100.00000 0.006771
66110.00000 0.006859
66120.00000 0.006952
66130.00000 0.007047
66140.00000 0.007141
66150.00000 0.007239
66160.00000 0.007339
66170.00000 0.007436
66180.00000 0.007526
66190.00000 0.007606
66200.00000 0.007677
66210.00000 0.007745
66220.00000 0.007812
66230.00000 0.00788
66240.00000 0.00794
66250.00000 0.008001
66260.00000 0.008073
66270.00000 0.00817
66280.00000 0.008287
66290.00000 0.00842
66300.00000 0.008574
66310.00000 0.008752
66320.00000 0.00896
66330.00000 0.0092
66340.00000 0.009461
66350.00000 0.009733
66360.00000 0.010009
66370.00000 0.010299
66380.00000 0.010601
66390.00000 0.010901
66400.00000 0.011186
66410.00000 0.011453
66420.00000 0.011711
66430.00000 0.011957
66440.00000 0.012188
66450.00000 0.012401
66460.00000 0.012594
66470.00000 0.012771
66480.00000 0.012939
66490.00000 0.013104
66500.00000 0.01326
66510.00000 0.013408
66520.00000 0.013551
66530.00000 0.013697
66540.00000 0.013847
66550.00000 0.013999
66560.00000 0.014151
66570.00000 0.014307
66580.00000 0.014467
66590.00000 0.01463
66600.00000 0.014797
66610.00000 0.014967
66620.00000 0.015141
66630.00000 0.015317
66640.00000 0.015495
66650.00000 0.015678
66660.00000 0.01587
66670.00000 0.016073
66680.00000 0.016282
66690.00000 0.0165
66700.00000 0.016733
66710.00000 0.016988
66720.00000 0.017264
66730.00000 0.017558
66740.00000 0.017871
66750.00000 0.018208
66760.00000 0.018572
66770.00000 0.018964
66780.00000 0.019381
66790.00000 0.019814
66800.00000 0.020258
66810.00000 0.020719
66820.00000 0.021199
66830.00000 0.021688
66840.00000 0.022172
66850.00000 0.022644
66860.00000 0.023119
66870.00000 0.023588
66880.00000 0.024044
66890.00000 0.024476
66900.00000 0.024882
66910.00000 0.025269
66920.00000 0.025638
66930.00000 0.025992
66940.00000 0.026328
66950.00000 0.026637
66960.00000 0.026931
66970.00000 0.027225
66980.00000 0.027531
66990.00000 0.027838
67000.00000 0.028142
67010.00000 0.028462
67020.00000 0.028817
67030.00000 0.029219
67040.00000 0.029653
67050.00000 0.03012
67060.00000 0.030626
67070.00000 0.031176
67080.00000 0.031777
67090.00000 0.032422
67100.00000 0.033102
67110.00000 0.033805
67120.00000 0.034527
67130.00000 0.035283
67140.00000 0.036062
67150.00000 0.036848
67160.00000 0.037623
67170.00000 0.038393
67180.00000 0.039165
67190.00000 0.039933
67200.00000 0.040694
67210.00000 0.041443
67220.00000 0.042184
67230.00000 0.042917
67240.00000 0.043643
67250.00000 0.044361
67260.00000 0.04507
67270.00000 0.04577
67280.00000 0.046465
67290.00000 0.047157
67300.00000 0.04785
67310.00000 0.048536
67320.00000 0.04922
67330.00000 0.049908
67340.00000 0.050606
67350.00000 0.051307
67360.00000 0.052009
67370.00000 0.052723
67380.00000 0.053459
67390.00000 0.054224
67400.00000 0.055009
67410.00000 0.055816
67420.00000 0.056649
67430.00000 0.057512
67440.00000 0.058409
67450.00000 0.059338
67460.00000 0.060292
67470.00000 0.061267
67480.00000 0.062259
67490.00000 0.063279
67500.00000 0.06432
67510.00000 0.06537
67520.00000 0.066419
67530.00000 0.067461
67540.00000 0.068507
67550.00000 0.069553
67560.00000 0.070596
67570.00000 0.071633
67580.00000 0.072657
67590.00000 0.073675
67600.00000 0.074695
67610.00000 0.075726
67620.00000 0.076771
67630.00000 0.077819
67640.00000 0.078877
67650.00000 0.079957
67660.00000 0.081068
67670.00000 0.08221
67680.00000 0.083377
67690.00000 0.084568
67700.00000 0.085781
67710.00000 0.087015
67720.00000 0.088267
67730.00000 0.089542
67740.00000 0.090844
67750.00000 0.092176
67760.00000 0.093527
67770.00000 0.09489
67780.00000 0.096293
67790.00000 0.097763
67800.00000 0.099323
67810.00000 0.100947
67820.00000 0.102639
67830.00000 0.104413
67840.00000 0.106288
67850.00000 0.108283
67860.00000 0.1104
67870.00000 0.112604
67880.00000 0.114861
67890.00000 0.117135
67900.00000 0.11948
67910.00000 0.12189
67920.00000 0.124302
67930.00000 0.126652
67940.00000 0.128896
67950.00000 0.13109
67960.00000 0.133226
67970.00000 0.135283
67980.00000 0.137239
67990.00000 0.139073
68000.00000 0.140798
68010.00000 0.142442
68020.00000 0.144035
68030.00000 0.145601
68040.00000 0.147101
68050.00000 0.148545
68060.00000 0.14997
68070.00000 0.151412
68080.00000 0.152886
68090.00000 0.15435
68100.00000 0.155828
68110.00000 0.157348
68120.00000 0.158938
68130.00000 0.160581
68140.00000 0.162261
68150.00000 0.16401
68160.00000 0.16586
68170.00000 0.16784
68180.00000 0.169934
68190.00000 0.172133
68200.00000 0.174432
68210.00000 0.176831
68220.00000 0.179347
68230.00000 0.182007
68240.00000 0.184756
68250.00000 0.187538
68260.00000 0.190293
68270.00000 0.193065
68280.00000 0.195875
68290.00000 0.198665
68300.00000 0.201377
68310.00000 0.20396
68320.00000 0.20645
68330.00000 0.20886
68340.00000 0.211187
68350.00000 0.213432
68360.00000 0.215586
68370.00000 0.217642
68380.00000 0.21962
68390.00000 0.221538
68400.00000 0.223417
68410.00000 0.22524
68420.00000 0.227
68430.00000 0.22872
68440.00000 0.230426
68450.00000 0.232129
68460.00000 0.233762
68470.00000 0.235366
68480.00000 0.237019
68490.00000 0.238794
68500.00000 0.240707
68510.00000 0.242653
68520.00000 0.244716
68530.00000 0.24699
68540.00000 0.249571
68550.00000 0.252484
68560.00000 0.255668
68570.00000 0.259093
68580.00000 0.26273
68590.00000 0.26656
68600.00000 0.270726
68610.00000 0.275145
68620.00000 0.279649
68630.00000 0.284068
68640.00000 0.288313
68650.00000 0.292577
68660.00000 0.296781
68670.00000 0.300806
68680.00000 0.304536
68690.00000 0.30791
68700.00000 0.311005
68710.00000 0.313871
68720.00000 0.316556
68730.00000 0.319107
68740.00000 0.321436
68750.00000 0.323554
68760.00000 0.325565
68770.00000 0.327572
68780.00000 0.329661
68790.00000 0.331746
68800.00000 0.333824
68810.00000 0.335922
68820.00000 0.33807
68830.00000 0.340289
68840.00000 0.342569
68850.00000 0.344887
68860.00000 0.347225
68870.00000 0.349561
68880.00000 0.351892
68890.00000 0.35423
68900.00000 0.356579
68910.00000 0.358942
68920.00000 0.361323
68930.00000 0.363707
68940.00000 0.3661
68950.00000 0.368519
68960.00000 0.37098
68970.00000 0.3735
68980.00000 0.37607
68990.00000 0.378684
69000.00000 0.381335
69010.00000 0.384016
69020.00000 0.386733
69030.00000 0.389504
69040.00000 0.392305
69050.00000 0.395107
69060.00000 0.397881
69070.00000 0.400636
69080.00000 0.403394
69090.00000 0.406131
69100.00000 0.408823
69110.00000 0.411444
69120.00000 0.414004
69130.00000 0.416513
69140.00000 0.418968
69150.00000 0.421366
69160.00000 0.423702
69170.00000 0.425964
69180.00000 0.428165
69190.00000 0.430323
69200.00000 0.432454
69210.00000 0.434567
69220.00000 0.436638
69230.00000 0.43868
69240.00000 0.44071
69250.00000 0.442744
69260.00000 0.44479
69270.00000 0.446838
69280.00000 0.448882
69290.00000 0.450922
69300.00000 0.452955
69310.00000 0.454991
69320.00000 0.457032
69330.00000 0.459061
69340.00000 0.461059
69350.00000 0.463009
69360.00000 0.464921
69370.00000 0.4668
69380.00000 0.468643
69390.00000 0.470446
69400.00000 0.472204
69410.00000 0.473905
69420.00000 0.475561
69430.00000 0.477193
69440.00000 0.478818
69450.00000 0.480444
69460.00000 0.482038
69470.00000 0.483621
69480.00000 0.485224
69490.00000 0.486875
69500.00000 0.488586
69510.00000 0.490331
69520.00000 0.492115
69530.00000 0.493948
69540.00000 0.495839
69550.00000 0.497804
69560.00000 0.49984
69570.00000 0.501922
69580.00000 0.504025
69590.00000 0.506123
69600.00000 0.50825
69610.00000 0.510412
69620.00000 0.512567
69630.00000 0.514673
69640.00000 0.516687
69650.00000 0.518642
69660.00000 0.520546
69670.00000 0.522382
69680.00000 0.524131
69690.00000 0.525776
69700.00000 0.52731
69710.00000 0.528753
69720.00000 0.530123
69730.00000 0.53144
69740.00000 0.532712
69750.00000 0.533901
69760.00000 0.535031
69770.00000 0.536135
69780.00000 0.537248
69790.00000 0.538388
69800.00000 0.539519
69810.00000 0.540651
69820.00000 0.541797
69830.00000 0.542972
69840.00000 0.544186
69850.00000 0.54543
69860.00000 0.546697
69870.00000 0.547979
69880.00000 0.549269
69890.00000 0.550573
69900.00000 0.551901
69910.00000 0.553237
69920.00000 0.554565
69930.00000 0.555869
69940.00000 0.557157
69950.00000 0.558437
69960.00000 0.5597
69970.00000 0.560936
69980.00000 0.562135
69990.00000 0.563299
70000.00000 0.564434
70010.00000 0.565539
70020.00000 0.566613
70030.00000 0.567654
70040.00000 0.568655
70050.00000 0.569621
70060.00000 0.570561
70070.00000 0.571488
70080.00000 0.57241
70090.00000 0.573311
70100.00000 0.574195
70110.00000 0.575074
70120.00000 0.575962
70130.00000 0.576867
70140.00000 0.577782
70150.00000 0.578704
70160.00000 0.579635
70170.00000 0.580577
70180.00000 0.581532
70190.00000 0.582507
70200.00000 0.583495
70210.00000 0.584485
70220.00000 0.585466
70230.00000 0.586431
70240.00000 0.587394
70250.00000 0.588351
70260.00000 0.589294
70270.00000 0.590213
70280.00000 0.591102
70290.00000 0.591962
70300.00000 0.592801
70310.00000 0.593625
70320.00000 0.594442
70330.00000 0.595252
70340.00000 0.596037
70350.00000 0.596813
70360.00000 0.597597
70370.00000 0.598407
70380.00000 0.59925
70390.00000 0.600107
70400.00000 0.600984
70410.00000 0.601889
70420.00000 0.602828
70430.00000 0.603812
70440.00000 0.60484
70450.00000 0.605898
70460.00000 0.606972
70470.00000 0.608048
70480.00000 0.609129
70490.00000 0.610234
70500.00000 0.611345
70510.00000 0.61244
70520.00000 0.613499
70530.00000 0.614514
70540.00000 0.615506
70550.00000 0.616471
70560.00000 0.617404
70570.00000 0.618302
70580.00000 0.619158
70590.00000 0.61997
70600.00000 0.620751
70610.00000 0.621515
70620.00000 0.622274
70630.00000 0.623026
70640.00000 0.623758
70650.00000 0.624481
70660.00000 0.625206
70670.00000 0.625945
70680.00000 0.626701
70690.00000 0.627463
70700.00000 0.628232
70710.00000 0.629012
70720.00000 0.629803
70730.00000 0.630607
70740.00000 0.631421
70750.00000 0.632245
70760.00000 0.633079
70770.00000 0.633923
70780.00000 0.634776
70790.00000 0.635637
70800.00000 0.636509
70810.00000 0.63739
70820.00000 0.638284
70830.00000 0.639189
70840.00000 0.640107
70850.00000 0.641035
70860.00000 0.641972
70870.00000 0.642918
70880.00000 0.643875
70890.00000 0.644844
70900.00000 0.645821
70910.00000 0.646802
70920.00000 0.64778
70930.00000 0.648756
70940.00000 0.649733
70950.00000 0.650711
70960.00000 0.651689
70970.00000 0.652664
70980.00000 0.653635
70990.00000 0.6546
71000.00000 0.655564
71010.00000 0.656533
71020.00000 0.657515
71030.00000 0.658507
71040.00000 0.659502
71050.00000 0.660506
71060.00000 0.661528
71070.00000 0.662577
71080.00000 0.663657
71090.00000 0.66476
71100.00000 0.665888
71110.00000 0.667038
71120.00000 0.668211
71130.00000 0.66941
71140.00000 0.670643
71150.00000 0.671899
71160.00000 0.673168
71170.00000 0.674438
71180.00000 0.675705
71190.00000 0.676987
71200.00000 0.678275
71210.00000 0.679556
71220.00000 0.680816
71230.00000 0.682045
71240.00000 0.683254
71250.00000 0.684445
71260.00000 0.685618
71270.00000 0.686773
71280.00000 0.687907
71290.00000 0.689009
71300.00000 0.690089
71310.00000 0.691162
71320.00000 0.692243
71330.00000 0.693344
71340.00000 0.694444
71350.00000 0.695546
71360.00000 0.696664
71370.00000 0.697815
71380.00000 0.699011
71390.00000 0.700248
71400.00000 0.701518
71410.00000 0.70282
71420.00000 0.70415
71430.00000 0.705508
71440.00000 0.706903
71450.00000 0.708335
71460.00000 0.709789
71470.00000 0.711253
71480.00000 0.712712
71490.00000 0.714173
71500.00000 0.715641
71510.00000 0.717115
71520.00000 0.718588
71530.00000 0.720057
71540.00000 0.721516
71550.00000 0.722966
71560.00000 0.724417
71570.00000 0.725877
71580.00000 0.727354
71590.00000 0.728849
71600.00000 0.730355
71610.00000 0.731874
71620.00000 0.733409
71630.00000 0.734965
71640.00000 0.736547
71650.00000 0.738159
71660.00000 0.739791
71670.00000 0.74143
71680.00000 0.743066
71690.00000 0.744693
71700.00000 0.746333
71710.00000 0.747974
71720.00000 0.749602
71730.00000 0.751201
71740.00000 0.752758
71750.00000 0.754289
71760.00000 0.755794
71770.00000 0.757268
71780.00000 0.758705
71790.00000 0.760099
71800.00000 0.761449
71810.00000 0.762758
71820.00000 0.764034
71830.00000 0.765283
71840.00000 0.766511
71850.00000 0.767706
71860.00000 0.768866
71870.00000 0.770006
71880.00000 0.771138
71890.00000 0.772278
71900.00000 0.773418
71910.00000 0.774545
71920.00000 0.775673
71930.00000 0.776816
71940.00000 0.777989
71950.00000 0.779194
71960.00000 0.780419
71970.00000 0.781666
71980.00000 0.782941
71990.00000 0.784247
72000.00000 0.785591
72010.00000 0.786976
72020.00000 0.788394
72030.00000 0.789832
72040.00000 0.791281
72050.00000 0.792734
72060.00000 0.794212
72070.00000 0.795708
72080.00000 0.797204
72090.00000 0.798685
72100.00000 0.800134
72110.00000 0.801567
72120.00000 0.802989
72130.00000 0.80439
72140.00000 0.805758
72150.00000 0.807085
72160.00000 0.808369
72170.00000 0.809616
72180.00000 0.810831
72190.00000 0.812014
72200.00000 0.813168
72210.00000 0.814291
72220.00000 0.815377
72230.00000 0.816434
72240.00000 0.817469
72250.00000 0.81849
72260.00000 0.819501
72270.00000 0.820491
72280.00000 0.821464
72290.00000 0.822426
72300.00000 0.823384
72310.00000 0.824344
72320.00000 0.8253
72330.00000 0.826252
72340.00000 0.827199
72350.00000 0.828142
72360.00000 0.82908
72370.00000 0.830016
72380.00000 0.830948
72390.00000 0.831875
72400.00000 0.832795
72410.00000 0.833705
72420.00000 0.834606
72430.00000 0.835501
72440.00000 0.836388
72450.00000 0.837263
72460.00000 0.838125
72470.00000 0.83897
72480.00000 0.839803
72490.00000 0.840622
72500.00000 0.841429
72510.00000 0.842221
72520.00000 0.843001
72530.00000 0.843765
72540.00000 0.844517
72550.00000 0.845255
72560.00000 0.845981
72570.00000 0.846695
72580.00000 0.847394
72590.00000 0.848078
72600.00000 0.848752
72610.00000 0.84942
72620.00000 0.850086
72630.00000 0.850752
72640.00000 0.85141
72650.00000 0.852065
72660.00000 0.852721
72670.00000 0.85338
72680.00000 0.854047
72690.00000 0.854719
72700.00000 0.855395
72710.00000 0.856072
72720.00000 0.85675
72730.00000 0.857429
72740.00000 0.858115
72750.00000 0.858806
72760.00000 0.859495
72770.00000 0.860172
72780.00000 0.860832
72790.00000 0.861477
72800.00000 0.862113
72810.00000 0.862737
72820.00000 0.863341
72830.00000 0.863923
72840.00000 0.864478
72850.00000 0.865009
72860.00000 0.865519
72870.00000 0.86601
72880.00000 0.866484
72890.00000 0.866941
72900.00000 0.867376
72910.00000 0.867791
72920.00000 0.868192
72930.00000 0.868586
72940.00000 0.868979
72950.00000 0.869367
72960.00000 0.869746
72970.00000 0.870121
72980.00000 0.870493
72990.00000 0.870865
73000.00000 0.87124
73010.00000 0.871615
73020.00000 0.871989
73030.00000 0.872362
73040.00000 0.872731
73050.00000 0.873096
73060.00000 0.873461
73070.00000 0.873824
73080.00000 0.874182
73090.00000 0.874533
73100.00000 0.874872
73110.00000 0.875202
73120.00000 0.875525
73130.00000 0.875839
73140.00000 0.876142
73150.00000 0.876432
73160.00000 0.876709
73170.00000 0.876973
73180.00000 0.877226
73190.00000 0.877467
73200.00000 0.877696
73210.00000 0.877914
73220.00000 0.87812
73230.00000 0.878314
73240.00000 0.878496
73250.00000 0.878668
73260.00000 0.878829
73270.00000 0.87898
73280.00000 0.87912
73290.00000 0.879249
73300.00000 0.879366
73310.00000 0.879473
73320.00000 0.879569
73330.00000 0.879656
73340.00000 0.879732
73350.00000 0.879796
73360.00000 0.879845
73370.00000 0.879878
73380.00000 0.879898
73390.00000 0.879903
73400.00000 0.879894
73410.00000 0.87987
73420.00000 0.879829
73430.00000 0.879773
73440.00000 0.879702
73450.00000 0.879615
73460.00000 0.879511
73470.00000 0.87939
73480.00000 0.879249
73490.00000 0.87909
73500.00000 0.878914
73510.00000 0.878719
73520.00000 0.878508
73530.00000 0.878279
73540.00000 0.878035
73550.00000 0.877774
73560.00000 0.877496
73570.00000 0.877198
73580.00000 0.876877
73590.00000 0.876534
73600.00000 0.876172
73610.00000 0.875789
73620.00000 0.875383
73630.00000 0.874954
73640.00000 0.8745
73650.00000 0.874024
73660.00000 0.873526
73670.00000 0.873004
73680.00000 0.872454
73690.00000 0.871873
73700.00000 0.87126
73710.00000 0.870618
73720.00000 0.869947
73730.00000 0.869247
73740.00000 0.86852
73750.00000 0.867766
73760.00000 0.866983
73770.00000 0.866172
73780.00000 0.865334
73790.00000 0.864469
73800.00000 0.863578
73810.00000 0.862658
73820.00000 0.86171
73830.00000 0.860735
73840.00000 0.859737
73850.00000 0.858718
73860.00000 0.85768
73870.00000 0.856622
73880.00000 0.855543
73890.00000 0.854442
73900.00000 0.853318
73910.00000 0.852171
73920.00000 0.851002
73930.00000 0.849811
73940.00000 0.848597
73950.00000 0.847359
73960.00000 0.846097
73970.00000 0.844809
73980.00000 0.843498
73990.00000 0.842164
74000.00000 0.840804
74010.00000 0.839414
74020.00000 0.837993
74030.00000 0.83654
74040.00000 0.835058
74050.00000 0.833546
74060.00000 0.832007
74070.00000 0.830442
74080.00000 0.828851
74090.00000 0.827231
74100.00000 0.825584
74110.00000 0.823912
74120.00000 0.822218
74130.00000 0.820506
74140.00000 0.81877
74150.00000 0.817009
74160.00000 0.815228
74170.00000 0.813431
74180.00000 0.811619
74190.00000 0.809796
74200.00000 0.807957
74210.00000 0.806102
74220.00000 0.804233
74230.00000 0.802353
74240.00000 0.800464
74250.00000 0.798563
74260.00000 0.796648
74270.00000 0.794723
74280.00000 0.79279
74290.00000 0.790854
74300.00000 0.788915
74310.00000 0.786968
74320.00000 0.785015
74330.00000 0.783059
74340.00000 0.781103
74350.00000 0.779152
74360.00000 0.777203
74370.00000 0.775255
74380.00000 0.773308
74390.00000 0.771363
74400.00000 0.769423
74410.00000 0.767489
74420.00000 0.765565
74430.00000 0.763646
74440.00000 0.761727
74450.00000 0.759804
74460.00000 0.757872
74470.00000 0.755937
74480.00000 0.754004
74490.00000 0.752064
74500.00000 0.750111
74510.00000 0.748134
74520.00000 0.746128
74530.00000 0.744102
74540.00000 0.742057
74550.00000 0.73999
74560.00000 0.737899
74570.00000 0.735783
74580.00000 0.733633
74590.00000 0.731449
74600.00000 0.729241
74610.00000 0.727021
74620.00000 0.724799
74630.00000 0.722585
74640.00000 0.720355
74650.00000 0.718113
74660.00000 0.715875
74670.00000 0.713659
74680.00000 0.711481
74690.00000 0.709344
74700.00000 0.707227
74710.00000 0.705137
74720.00000 0.703082
74730.00000 0.70107
74740.00000 0.699109
74750.00000 0.697199
74760.00000 0.695334
74770.00000 0.693511
74780.00000 0.691724
74790.00000 0.68997
74800.00000 0.688247
74810.00000 0.686565
74820.00000 0.684918
74830.00000 0.683302
74840.00000 0.681708
74850.00000 0.680132
74860.00000 0.678576
74870.00000 0.677044
74880.00000 0.675534
74890.00000 0.674044
74900.00000 0.672571
74910.00000 0.671113
74920.00000 0.66967
74930.00000 0.668245
74940.00000 0.666838
74950.00000 0.665451
74960.00000 0.664084
74970.00000 0.662738
74980.00000 0.661413
74990.00000 0.660107
75000.00000 0.658821
75010.00000 0.657556
75020.00000 0.656311
75030.00000 0.655085
75040.00000 0.653877
75050.00000 0.65269
75060.00000 0.651525
75070.00000 0.650386
75080.00000 0.649272
75090.00000 0.648181
75100.00000 0.647114
75110.00000 0.646071
75120.00000 0.645053
75130.00000 0.644061
75140.00000 0.643094
75150.00000 0.64215
75160.00000 0.641231
75170.00000 0.640339
75180.00000 0.639476
75190.00000 0.638643
75200.00000 0.637841
75210.00000 0.637068
75220.00000 0.636322
75230.00000 0.635605
75240.00000 0.634913
75250.00000 0.634247
75260.00000 0.633607
75270.00000 0.632993
75280.00000 0.632406
75290.00000 0.631848
75300.00000 0.63132
75310.00000 0.630822
75320.00000 0.630354
75330.00000 0.629915
75340.00000 0.629504
75350.00000 0.629119
75360.00000 0.62876
75370.00000 0.628426
75380.00000 0.628117
75390.00000 0.627836
75400.00000 0.627582
75410.00000 0.627356
75420.00000 0.627158
75430.00000 0.62699
75440.00000 0.62685
75450.00000 0.626736
75460.00000 0.626648
75470.00000 0.626582
75480.00000 0.626538
75490.00000 0.626518
75500.00000 0.626522
75510.00000 0.626551
75520.00000 0.626605
75530.00000 0.626685
75540.00000 0.626793
75550.00000 0.626927
75560.00000 0.627085
75570.00000 0.627268
75580.00000 0.627475
75590.00000 0.627703
75600.00000 0.627953
75610.00000 0.628226
75620.00000 0.628523
75630.00000 0.628845
75640.00000 0.629194
75650.00000 0.62957
75660.00000 0.629973
75670.00000 0.630401
75680.00000 0.630855
75690.00000 0.631335
75700.00000 0.63184
75710.00000 0.632371
75720.00000 0.632927
75730.00000 0.633509
75740.00000 0.634117
75750.00000 0.634751
75760.00000 0.635411
75770.00000 0.636101
75780.00000 0.636819
75790.00000 0.637562
75800.00000 0.638327
75810.00000 0.639113
75820.00000 0.639917
75830.00000 0.640744
75840.00000 0.641594
75850.00000 0.642463
75860.00000 0.64335
75870.00000 0.644251
75880.00000 0.645168
75890.00000 0.646101
75900.00000 0.647052
75910.00000 0.648018
75920.00000 0.648999
75930.00000 0.649992
75940.00000 0.650998
75950.00000 0.652016
75960.00000 0.653049
75970.00000 0.654098
75980.00000 0.655163
75990.00000 0.656247
76000.00000 0.657348
76010.00000 0.658466
76020.00000 0.659601
76030.00000 0.660753
76040.00000 0.661923
76050.00000 0.663112
76060.00000 0.664321
76070.00000 0.665548
76080.00000 0.666793
76090.00000 0.668052
76100.00000 0.669325
76110.00000 0.670611
76120.00000 0.671916
76130.00000 0.673235
76140.00000 0.674567
76150.00000 0.675906
76160.00000 0.677248
76170.00000 0.678596
76180.00000 0.679954
76190.00000 0.681318
76200.00000 0.682687
76210.00000 0.684056
76220.00000 0.685422
76230.00000 0.686788
76240.00000 0.688155
76250.00000 0.689523
76260.00000 0.690889
76270.00000 0.692253
76280.00000 0.693612
76290.00000 0.694968
76300.00000 0.696322
76310.00000 0.697673
76320.00000 0.69902
76330.00000 0.700365
76340.00000 0.701706
76350.00000 0.703045
76360.00000 0.704381
76370.00000 0.705713
76380.00000 0.707042
76390.00000 0.708366
76400.00000 0.709685
76410.00000 0.711002
76420.00000 0.712315
76430.00000 0.713624
76440.00000 0.714925
76450.00000 0.716218
76460.00000 0.717503
76470.00000 0.718784
76480.00000 0.720058
76490.00000 0.721323
76500.00000 0.722576
76510.00000 0.723816
76520.00000 0.725043
76530.00000 0.726259
76540.00000 0.727464
76550.00000 0.728656
76560.00000 0.729833
76570.00000 0.730994
76580.00000 0.732139
76590.00000 0.73327
76600.00000 0.734386
76610.00000 0.735486
76620.00000 0.73657
76630.00000 0.737636
76640.00000 0.738685
76650.00000 0.739719
76660.00000 0.740735
76670.00000 0.741735
76680.00000 0.742719
76690.00000 0.743686
76700.00000 0.744638
76710.00000 0.745574
76720.00000 0.746493
76730.00000 0.747395
76740.00000 0.748278
76750.00000 0.749144
76760.00000 0.749992
76770.00000 0.750822
76780.00000 0.751635
76790.00000 0.75243
76800.00000 0.753207
76810.00000 0.753966
76820.00000 0.754707
76830.00000 0.75543
76840.00000 0.756135
76850.00000 0.756822
76860.00000 0.75749
76870.00000 0.758138
76880.00000 0.758768
76890.00000 0.759379
76900.00000 0.759971
76910.00000 0.760546
76920.00000 0.761102
76930.00000 0.761642
76940.00000 0.762163
76950.00000 0.762667
76960.00000 0.763153
76970.00000 0.763621
76980.00000 0.76407
76990.00000 0.764501
77000.00000 0.764913
77010.00000 0.765306
77020.00000 0.765682
77030.00000 0.766042
77040.00000 0.766385
77050.00000 0.766713
77060.00000 0.767023
77070.00000 0.767316
77080.00000 0.767593
77090.00000 0.767856
77100.00000 0.768106
77110.00000 0.768341
77120.00000 0.768559
77130.00000 0.768763
77140.00000 0.768954
77150.00000 0.769134
77160.00000 0.769304
77170.00000 0.769463
77180.00000 0.76961
77190.00000 0.769747
77200.00000 0.769873
77210.00000 0.769989
77220.00000 0.770096
77230.00000 0.770194
77240.00000 0.770281
77250.00000 0.770358
77260.00000 0.770428
77270.00000 0.77049
77280.00000 0.770546
77290.00000 0.770595
77300.00000 0.770636
77310.00000 0.77067
77320.00000 0.770698
77330.00000 0.770721
77340.00000 0.770742
77350.00000 0.770758
77360.00000 0.770768
77370.00000 0.770774
77380.00000 0.770777
77390.00000 0.77078
77400.00000 0.770783
77410.00000 0.770787
77420.00000 0.770788
77430.00000 0.770788
77440.00000 0.770789
77450.00000 0.770792
77460.00000 0.770799
77470.00000 0.770807
77480.00000 0.770816
77490.00000 0.770827
77500.00000 0.770841
77510.00000 0.770859
77520.00000 0.770883
77530.00000 0.770911
77540.00000 0.770943
77550.00000 0.770978
77560.00000 0.771019
77570.00000 0.771066
77580.00000 0.77112
77590.00000 0.771179
77600.00000 0.771243
77610.00000 0.771314
77620.00000 0.771391
77630.00000 0.771475
77640.00000 0.771567
77650.00000 0.771667
77660.00000 0.771773
77670.00000 0.771887
77680.00000 0.772009
77690.00000 0.772139
77700.00000 0.772278
77710.00000 0.772425
77720.00000 0.772581
77730.00000 0.772744
77740.00000 0.772917
77750.00000 0.773099
77760.00000 0.773291
77770.00000 0.773492
77780.00000 0.773703
77790.00000 0.773923
77800.00000 0.774153
77810.00000 0.774393
77820.00000 0.774644
77830.00000 0.774905
77840.00000 0.775176
77850.00000 0.775457
77860.00000 0.775749
77870.00000 0.776051
77880.00000 0.776365
77890.00000 0.77669
77900.00000 0.777026
77910.00000 0.777373
77920.00000 0.77773
77930.00000 0.778099
77940.00000 0.77848
77950.00000 0.778871
77960.00000 0.779274
77970.00000 0.779688
77980.00000 0.780113
77990.00000 0.78055
78000.00000 0.780998
78010.00000 0.781457
78020.00000 0.781928
78030.00000 0.782411
78040.00000 0.782904
78050.00000 0.783408
78060.00000 0.783923
78070.00000 0.784447
78080.00000 0.784984
78090.00000 0.78553
78100.00000 0.786087
78110.00000 0.786654
78120.00000 0.787229
78130.00000 0.787813
78140.00000 0.788407
78150.00000 0.789011
78160.00000 0.789623
78170.00000 0.790243
78180.00000 0.790871
78190.00000 0.791504
78200.00000 0.792145
78210.00000 0.792794
78220.00000 0.79345
78230.00000 0.794112
78240.00000 0.79478
78250.00000 0.795454
78260.00000 0.796133
78270.00000 0.79682
78280.00000 0.797512
78290.00000 0.798209
78300.00000 0.798911
78310.00000 0.799617
78320.00000 0.800328
78330.00000 0.801045
78340.00000 0.801766
78350.00000 0.802492
78360.00000 0.803221
78370.00000 0.803954
78380.00000 0.80469
78390.00000 0.805432
78400.00000 0.806177
78410.00000 0.806926
78420.00000 0.807677
78430.00000 0.80843
78440.00000 0.809186
78450.00000 0.809946
78460.00000 0.810708
78470.00000 0.811472
78480.00000 0.812238
78490.00000 0.813005
78500.00000 0.813772
78510.00000 0.814541
78520.00000 0.815312
78530.00000 0.816083
78540.00000 0.816855
78550.00000 0.817625
78560.00000 0.818394
78570.00000 0.819164
78580.00000 0.819934
78590.00000 0.820702
78600.00000 0.821469
78610.00000 0.822231
78620.00000 0.822989
78630.00000 0.823744
78640.00000 0.824497
78650.00000 0.825246
78660.00000 0.825991
78670.00000 0.826731
78680.00000 0.827465
78690.00000 0.828195
78700.00000 0.828921
78710.00000 0.829642
78720.00000 0.830357
78730.00000 0.831066
78740.00000 0.831767
78750.00000 0.832461
78760.00000 0.833149
78770.00000 0.83383
78780.00000 0.834504
78790.00000 0.835173
78800.00000 0.835834
78810.00000 0.83649
78820.00000 0.83714
78830.00000 0.837784
78840.00000 0.838421
78850.00000 0.83905
78860.00000 0.839672
78870.00000 0.840284
78880.00000 0.840889
78890.00000 0.841487
78900.00000 0.842076
78910.00000 0.842658
78920.00000 0.843233
78930.00000 0.8438
78940.00000 0.844361
78950.00000 0.844915
78960.00000 0.84546
78970.00000 0.845998
78980.00000 0.846527
78990.00000 0.847046
79000.00000 0.847555
79010.00000 0.848055
79020.00000 0.848546
79030.00000 0.849028
79040.00000 0.849502
79050.00000 0.849967
79060.00000 0.850425
79070.00000 0.850875
79080.00000 0.851316
79090.00000 0.851748
79100.00000 0.852171
79110.00000 0.852582
79120.00000 0.852983
79130.00000 0.853374
79140.00000 0.853755
79150.00000 0.854126
79160.00000 0.854486
79170.00000 0.854835
79180.00000 0.855171
79190.00000 0.855499
79200.00000 0.855816
79210.00000 0.856122
79220.00000 0.856415
79230.00000 0.856693
79240.00000 0.856955
79250.00000 0.857202
79260.00000 0.857436
79270.00000 0.857656
79280.00000 0.85786
79290.00000 0.858046
79300.00000 0.858212
79310.00000 0.85836
79320.00000 0.858492
79330.00000 0.858607
79340.00000 0.858703
79350.00000 0.858777
79360.00000 0.858829
79370.00000 0.858858
79380.00000 0.858866
79390.00000 0.858854
79400.00000 0.85882
79410.00000 0.858762
79420.00000 0.858679
79430.00000 0.858568
79440.00000 0.858434
79450.00000 0.858277
79460.00000 0.858094
79470.00000 0.857885
79480.00000 0.857647
79490.00000 0.85738
79500.00000 0.857084
79510.00000 0.856764
79520.00000 0.856415
79530.00000 0.856037
79540.00000 0.855625
79550.00000 0.855176
79560.00000 0.85469
79570.00000 0.854173
79580.00000 0.853623
79590.00000 0.853037
79600.00000 0.852413
79610.00000 0.851746
79620.00000 0.851034
79630.00000 0.850284
79640.00000 0.849496
79650.00000 0.848667
79660.00000 0.847793
79670.00000 0.846868
79680.00000 0.845888
79690.00000 0.844855
79700.00000 0.843776
79710.00000 0.842648
79720.00000 0.841466
79730.00000 0.84023
79740.00000 0.838936
79750.00000 0.837583
79760.00000 0.836178
79770.00000 0.834719
79780.00000 0.833203
79790.00000 0.831626
79800.00000 0.829984
79810.00000 0.828275
79820.00000 0.826501
79830.00000 0.824666
79840.00000 0.822767
79850.00000 0.820803
79860.00000 0.818773
79870.00000 0.816674
79880.00000 0.814508
79890.00000 0.812279
79900.00000 0.809984
79910.00000 0.807621
79920.00000 0.805187
79930.00000 0.80268
79940.00000 0.800098
79950.00000 0.797443
79960.00000 0.794717
79970.00000 0.791919
79980.00000 0.789049
79990.00000 0.786109
80000.00000 0.783097
80010.00000 0.780015
80020.00000 0.776862
80030.00000 0.773637
80040.00000 0.770343
80050.00000 0.766976
80060.00000 0.76354
80070.00000 0.760031
80080.00000 0.756448
80090.00000 0.752793
80100.00000 0.749068
80110.00000 0.745277
80120.00000 0.741422
80130.00000 0.737506
80140.00000 0.733525
80150.00000 0.729476
80160.00000 0.725364
80170.00000 0.72119
80180.00000 0.716957
80190.00000 0.712667
80200.00000 0.708319
80210.00000 0.703905
80220.00000 0.69943
80230.00000 0.694899
80240.00000 0.690319
80250.00000 0.685693
80260.00000 0.681026
80270.00000 0.676307
80280.00000 0.671535
80290.00000 0.666717
80300.00000 0.661858
80310.00000 0.656964
80320.00000 0.652039
80330.00000 0.64708
80340.00000 0.642076
80350.00000 0.637034
80360.00000 0.631962
80370.00000 0.626868
80380.00000 0.62176
80390.00000 0.616641
80400.00000 0.611497
80410.00000 0.606328
80420.00000 0.601143
80430.00000 0.595948
80440.00000 0.590749
80450.00000 0.585554
80460.00000 0.580356
80470.00000 0.575147
80480.00000 0.569933
80490.00000 0.564719
80500.00000 0.559514
80510.00000 0.554322
80520.00000 0.549149
80530.00000 0.543981
80540.00000 0.538819
80550.00000 0.533669
80560.00000 0.528535
80570.00000 0.523424
80580.00000 0.518338
80590.00000 0.513275
80600.00000 0.508227
80610.00000 0.503198
80620.00000 0.498195
80630.00000 0.49322
80640.00000 0.488279
80650.00000 0.483373
80660.00000 0.478494
80670.00000 0.473641
80680.00000 0.468821
80690.00000 0.464036
80700.00000 0.459292
80710.00000 0.454591
80720.00000 0.449931
80730.00000 0.445306
80740.00000 0.44072
80750.00000 0.436175
80760.00000 0.431676
80770.00000 0.427224
80780.00000 0.422822
80790.00000 0.418465
80800.00000 0.414151
80810.00000 0.409884
80820.00000 0.405666
80830.00000 0.401498
80840.00000 0.397383
80850.00000 0.39332
80860.00000 0.389305
80870.00000 0.385341
80880.00000 0.381428
80890.00000 0.377567
80900.00000 0.373757
80910.00000 0.370001
80920.00000 0.366296
80930.00000 0.362643
80940.00000 0.359042
80950.00000 0.355493
80960.00000 0.351996
80970.00000 0.348552
80980.00000 0.345162
80990.00000 0.341823
81000.00000 0.338537
81010.00000 0.335302
81020.00000 0.33212
81030.00000 0.328991
81040.00000 0.325913
81050.00000 0.322889
81060.00000 0.319917
81070.00000 0.316997
81080.00000 0.314128
81090.00000 0.311311
81100.00000 0.308543
81110.00000 0.305826
81120.00000 0.303159
81130.00000 0.300543
81140.00000 0.297977
81150.00000 0.295462
81160.00000 0.292996
81170.00000 0.290581
81180.00000 0.288216
81190.00000 0.285903
81200.00000 0.283639
81210.00000 0.281425
81220.00000 0.279258
81230.00000 0.277138
81240.00000 0.275063
81250.00000 0.273035
81260.00000 0.271055
81270.00000 0.269122
81280.00000 0.267236
81290.00000 0.265399
81300.00000 0.263611
81310.00000 0.261872
81320.00000 0.260183
81330.00000 0.258542
81340.00000 0.256948
81350.00000 0.255401
81360.00000 0.253898
81370.00000 0.252439
81380.00000 0.251024
81390.00000 0.249654
81400.00000 0.248329
81410.00000 0.24705
81420.00000 0.245818
81430.00000 0.244635
81440.00000 0.243499
81450.00000 0.242412
81460.00000 0.241371
81470.00000 0.240378
81480.00000 0.23943
81490.00000 0.238528
81500.00000 0.237671
81510.00000 0.236858
81520.00000 0.23609
81530.00000 0.235366
81540.00000 0.234689
81550.00000 0.234059
81560.00000 0.233477
81570.00000 0.232943
81580.00000 0.232455
81590.00000 0.232012
81600.00000 0.231617
81610.00000 0.23127
81620.00000 0.230974
81630.00000 0.230731
81640.00000 0.23054
81650.00000 0.230397
81660.00000 0.230303
81670.00000 0.230261
81680.00000 0.230272
81690.00000 0.230337
81700.00000 0.230459
81710.00000 0.23063
81720.00000 0.230851
81730.00000 0.231124
81740.00000 0.231455
81750.00000 0.231848
81760.00000 0.232306
81770.00000 0.232834
81780.00000 0.233422
81790.00000 0.234071
81800.00000 0.234783
81810.00000 0.235563
81820.00000 0.236412
81830.00000 0.237335
81840.00000 0.238329
81850.00000 0.239382
81860.00000 0.2405
81870.00000 0.241692
81880.00000 0.242967
81890.00000 0.244332
81900.00000 0.245797
81910.00000 0.247351
81920.00000 0.248984
81930.00000 0.250703
81940.00000 0.252517
81950.00000 0.254433
81960.00000 0.256457
81970.00000 0.258595
81980.00000 0.260826
81990.00000 0.263149
82000.00000 0.265577
82010.00000 0.268123
82020.00000 0.2708
82030.00000 0.27362
82040.00000 0.276587
82050.00000 0.279675
82060.00000 0.282888
82070.00000 0.286236
82080.00000 0.289732
82090.00000 0.293386
82100.00000 0.297209
82110.00000 0.301194
82120.00000 0.305319
82130.00000 0.309595
82140.00000 0.314035
82150.00000 0.318652
82160.00000 0.323458
82170.00000 0.328466
82180.00000 0.333667
82190.00000 0.339052
82200.00000 0.344621
82210.00000 0.350376
82220.00000 0.356318
82230.00000 0.362449
82240.00000 0.368771
82250.00000 0.375309
82260.00000 0.382052
82270.00000 0.38898
82280.00000 0.396076
82290.00000 0.403317
82300.00000 0.410686
82310.00000 0.418188
82320.00000 0.425916
82330.00000 0.433828
82340.00000 0.441865
82350.00000 0.449968
82360.00000 0.458077
82370.00000 0.466135
82380.00000 0.474183
82390.00000 0.482381
82400.00000 0.490636
82410.00000 0.498849
82420.00000 0.506919
82430.00000 0.514746
82440.00000 0.522231
82450.00000 0.529508
82460.00000 0.536718
82470.00000 0.543745
82480.00000 0.55047
82490.00000 0.556776
82500.00000 0.562543
82510.00000 0.567663
82520.00000 0.57233
82530.00000 0.576613
82540.00000 0.580421
82550.00000 0.583662
82560.00000 0.586248
82570.00000 0.588085
82580.00000 0.589102
82590.00000 0.589418
82600.00000 0.589064
82610.00000 0.58802
82620.00000 0.586268
82630.00000 0.583792
82640.00000 0.580571
82650.00000 0.576575
82660.00000 0.57175
82670.00000 0.566149
82680.00000 0.55984
82690.00000 0.552886
82700.00000 0.545357
82710.00000 0.537316
82720.00000 0.528728
82730.00000 0.519387
82740.00000 0.5094
82750.00000 0.498892
82760.00000 0.487988
82770.00000 0.476813
82780.00000 0.465492
82790.00000 0.453937
82800.00000 0.441912
82810.00000 0.429543
82820.00000 0.416962
82830.00000 0.4043
82840.00000 0.391688
82850.00000 0.379258
82860.00000 0.366877
82870.00000 0.354386
82880.00000 0.34188
82890.00000 0.329454
82900.00000 0.317204
82910.00000 0.305224
82920.00000 0.293606
82930.00000 0.282244
82940.00000 0.271063
82950.00000 0.260106
82960.00000 0.249413
82970.00000 0.239023
82980.00000 0.228978
82990.00000 0.219314
83000.00000 0.209999
83010.00000 0.201007
83020.00000 0.192337
83030.00000 0.183986
83040.00000 0.175952
83050.00000 0.168233
83060.00000 0.160829
83070.00000 0.153776
83080.00000 0.147061
83090.00000 0.14066
83100.00000 0.134548
83110.00000 0.128698
83120.00000 0.123086
83130.00000 0.117699
83140.00000 0.112602
83150.00000 0.107785
83160.00000 0.103219
83170.00000 0.098877
83180.00000 0.09473
83190.00000 0.090748
83200.00000 0.086922
83210.00000 0.083316
83220.00000 0.079918
83230.00000 0.076705
83240.00000 0.07365
83250.00000 0.070729
83260.00000 0.067918
83270.00000 0.065208
83280.00000 0.062652
83290.00000 0.06024
83300.00000 0.057954
83310.00000 0.055778
83320.00000 0.053693
83330.00000 0.051683
83340.00000 0.049745
83350.00000 0.047916
83360.00000 0.046186
83370.00000 0.044544
83380.00000 0.042975
83390.00000 0.041468
83400.00000 0.04001
83410.00000 0.0386
83420.00000 0.037263
83430.00000 0.035991
83440.00000 0.034779
83450.00000 0.033618
83460.00000 0.032502
83470.00000 0.031422
83480.00000 0.03038
83490.00000 0.029391
83500.00000 0.02845
83510.00000 0.027551
83520.00000 0.026689
83530.00000 0.025858
83540.00000 0.025052
83550.00000 0.024274
83560.00000 0.023533
83570.00000 0.022826
83580.00000 0.022148
83590.00000 0.021497
83600.00000 0.020867
83610.00000 0.020255
83620.00000 0.019662
83630.00000 0.019094
83640.00000 0.018549
83650.00000 0.018026
83660.00000 0.017522
83670.00000 0.017036
83680.00000 0.016565
83690.00000 0.016112
83700.00000 0.015681
83710.00000 0.015269
83720.00000 0.014874
83730.00000 0.014492
83740.00000 0.014119
83750.00000 0.013752
83760.00000 0.013391
83770.00000 0.013037
83780.00000 0.012694
83790.00000 0.01236
83800.00000 0.012038
83810.00000 0.011728
83820.00000 0.01143
83830.00000 0.011148
83840.00000 0.010883
83850.00000 0.010631
83860.00000 0.01039
83870.00000 0.010156
83880.00000 0.009926
83890.00000 0.009697
83900.00000 0.009467
83910.00000 0.009237
83920.00000 0.009011
83930.00000 0.00879
83940.00000 0.008575
83950.00000 0.00837
83960.00000 0.008174
83970.00000 0.007992
83980.00000 0.007822
83990.00000 0.007662
84000.00000 0.00751
84010.00000 0.007363
84020.00000 0.007218
84030.00000 0.007073
84040.00000 0.006925
84050.00000 0.006777
84060.00000 0.00663
84070.00000 0.006485
84080.00000 0.006344
84090.00000 0.006209
84100.00000 0.00608
84110.00000 0.005959
84120.00000 0.005846
84130.00000 0.005739
84140.00000 0.005638
84150.00000 0.00554
84160.00000 0.005443
84170.00000 0.005347
84180.00000 0.005249
84190.00000 0.005151
84200.00000 0.005054
84210.00000 0.004958
84220.00000 0.004865
84230.00000 0.004774
84240.00000 0.004687
84250.00000 0.004604
84260.00000 0.004526
84270.00000 0.004451
84280.00000 0.004379
84290.00000 0.00431
84300.00000 0.004241
84310.00000 0.004173
84320.00000 0.004105
84330.00000 0.004037
92763.00000 0.0
