# %ECSV 0.9
# ---
# datatype:
# - {name: wavelength, unit: Angstrom, datatype: float32}
# - {name: response, datatype: float32}
# meta: !!omap
# - {band_name: Bessel_R}
# - {group_name: WiFSIP}
wavelength response
4698.00000 0.0
5220.00000 1.6e-05
5225.00000 3.2e-05
5230.00000 2.1e-05
5235.00000 3.6e-05
5240.00000 3.1e-05
5245.00000 4.1e-05
5250.00000 3.4e-05
5255.00000 4.7e-05
5260.00000 3.5e-05
5265.00000 4.2e-05
5270.00000 5.1e-05
5275.00000 3.4e-05
5280.00000 4.6e-05
5285.00000 5.3e-05
5290.00000 8.2e-05
5295.00000 5.5e-05
5300.00000 7.9e-05
5305.00000 7.8e-05
5310.00000 8.3e-05
5315.00000 0.0001
5320.00000 0.000114
5325.00000 0.00012
5330.00000 0.000151
5335.00000 0.000143
5340.00000 0.000169
5345.00000 0.000201
5350.00000 0.000229
5355.00000 0.000258
5360.00000 0.00029
5365.00000 0.000313
5370.00000 0.00037
5375.00000 0.000427
5380.00000 0.000487
5385.00000 0.000566
5390.00000 0.000672
5395.00000 0.000764
5400.00000 0.000879
5405.00000 0.001029
5410.00000 0.001203
5415.00000 0.001396
5420.00000 0.001612
5425.00000 0.001888
5430.00000 0.002205
5435.00000 0.00255
5440.00000 0.002972
5445.00000 0.003449
5450.00000 0.004025
5455.00000 0.004682
5460.00000 0.005429
5465.00000 0.006275
5470.00000 0.007267
5475.00000 0.008427
5480.00000 0.009747
5485.00000 0.011231
5490.00000 0.012935
5495.00000 0.014863
5500.00000 0.017063
5505.00000 0.019536
5510.00000 0.022359
5515.00000 0.025467
5520.00000 0.029044
5525.00000 0.032934
5530.00000 0.03738
5535.00000 0.042329
5540.00000 0.047661
5545.00000 0.053555
5550.00000 0.060076
5555.00000 0.067047
5560.00000 0.074896
5565.00000 0.08321
5570.00000 0.092326
5575.00000 0.102238
5580.00000 0.112415
5585.00000 0.123707
5590.00000 0.135742
5595.00000 0.148125
5600.00000 0.161653
5605.00000 0.175583
5610.00000 0.190016
5615.00000 0.205631
5620.00000 0.221162
5625.00000 0.237997
5630.00000 0.255066
5635.00000 0.272383
5640.00000 0.290062
5645.00000 0.30789
5650.00000 0.326234
5655.00000 0.345319
5660.00000 0.364163
5665.00000 0.383193
5670.00000 0.40213
5675.00000 0.420212
5680.00000 0.438737
5685.00000 0.456913
5690.00000 0.475942
5695.00000 0.493014
5700.00000 0.509792
5705.00000 0.526499
5710.00000 0.543249
5715.00000 0.558786
5720.00000 0.57469
5725.00000 0.589647
5730.00000 0.603992
5735.00000 0.618144
5740.00000 0.63136
5745.00000 0.644001
5750.00000 0.656419
5755.00000 0.66787
5760.00000 0.67896
5765.00000 0.689299
5770.00000 0.699179
5775.00000 0.708651
5780.00000 0.717462
5785.00000 0.725619
5790.00000 0.733497
5795.00000 0.74102
5800.00000 0.747816
5805.00000 0.75425
5810.00000 0.760332
5815.00000 0.765814
5820.00000 0.770933
5825.00000 0.775918
5830.00000 0.780603
5835.00000 0.784612
5840.00000 0.788414
5845.00000 0.792065
5850.00000 0.795127
5855.00000 0.798311
5860.00000 0.800825
5865.00000 0.803526
5870.00000 0.805898
5875.00000 0.808171
5880.00000 0.809765
5885.00000 0.811314
5890.00000 0.812909
5895.00000 0.814115
5900.00000 0.815348
5905.00000 0.816182
5910.00000 0.816975
5915.00000 0.817885
5920.00000 0.818213
5925.00000 0.818716
5930.00000 0.819154
5935.00000 0.819187
5940.00000 0.819261
5945.00000 0.819307
5950.00000 0.819502
5955.00000 0.819058
5960.00000 0.819199
5965.00000 0.818697
5970.00000 0.818296
5975.00000 0.81771
5980.00000 0.81736
5985.00000 0.816765
5990.00000 0.815978
5995.00000 0.815503
6000.00000 0.814791
6005.00000 0.813979
6010.00000 0.813334
6015.00000 0.812297
6020.00000 0.811472
6025.00000 0.810264
6030.00000 0.809224
6035.00000 0.808363
6040.00000 0.80745
6045.00000 0.806119
6050.00000 0.804996
6055.00000 0.803823
6060.00000 0.802591
6065.00000 0.801407
6070.00000 0.799942
6075.00000 0.79859
6080.00000 0.797557
6085.00000 0.795964
6090.00000 0.794653
6095.00000 0.793277
6100.00000 0.791732
6105.00000 0.790249
6110.00000 0.788897
6115.00000 0.78736
6120.00000 0.785764
6125.00000 0.78395
6130.00000 0.782405
6135.00000 0.780913
6140.00000 0.779294
6145.00000 0.77774
6150.00000 0.775961
6155.00000 0.774257
6160.00000 0.772616
6165.00000 0.770775
6170.00000 0.769014
6175.00000 0.767247
6180.00000 0.765413
6185.00000 0.763511
6190.00000 0.761778
6195.00000 0.760098
6200.00000 0.757976
6205.00000 0.756057
6210.00000 0.754168
6215.00000 0.752227
6220.00000 0.750154
6225.00000 0.748505
6230.00000 0.746486
6235.00000 0.744541
6240.00000 0.74238
6245.00000 0.740453
6250.00000 0.738398
6255.00000 0.736299
6260.00000 0.734182
6265.00000 0.732146
6270.00000 0.730237
6275.00000 0.728124
6280.00000 0.726081
6285.00000 0.723761
6290.00000 0.721681
6295.00000 0.719501
6300.00000 0.717412
6305.00000 0.71519
6310.00000 0.712959
6315.00000 0.710794
6320.00000 0.708564
6325.00000 0.706446
6330.00000 0.704215
6335.00000 0.702005
6340.00000 0.69973
6345.00000 0.697705
6350.00000 0.695294
6355.00000 0.693211
6360.00000 0.69088
6365.00000 0.688662
6370.00000 0.686434
6375.00000 0.684078
6380.00000 0.681803
6385.00000 0.679569
6390.00000 0.677113
6395.00000 0.674831
6400.00000 0.672671
6405.00000 0.670227
6410.00000 0.667983
6415.00000 0.665619
6420.00000 0.663438
6425.00000 0.661149
6430.00000 0.65864
6435.00000 0.656355
6440.00000 0.65408
6445.00000 0.651643
6450.00000 0.649267
6455.00000 0.646829
6460.00000 0.644428
6465.00000 0.64211
6470.00000 0.639641
6475.00000 0.63723
6480.00000 0.63482
6485.00000 0.632388
6490.00000 0.629986
6495.00000 0.627721
6500.00000 0.625048
6505.00000 0.622686
6510.00000 0.620314
6515.00000 0.61785
6520.00000 0.615524
6525.00000 0.612765
6530.00000 0.610429
6535.00000 0.608101
6540.00000 0.605615
6545.00000 0.603342
6550.00000 0.600756
6555.00000 0.598203
6560.00000 0.595791
6565.00000 0.593446
6570.00000 0.591154
6575.00000 0.588783
6580.00000 0.586156
6585.00000 0.583838
6590.00000 0.581286
6595.00000 0.578919
6600.00000 0.576406
6605.00000 0.57386
6610.00000 0.571537
6615.00000 0.568885
6620.00000 0.566361
6625.00000 0.563845
6630.00000 0.561395
6635.00000 0.559058
6640.00000 0.556493
6645.00000 0.554051
6650.00000 0.551514
6655.00000 0.549032
6660.00000 0.54655
6665.00000 0.544063
6670.00000 0.541569
6675.00000 0.53889
6680.00000 0.536557
6685.00000 0.534135
6690.00000 0.531519
6695.00000 0.529104
6700.00000 0.526383
6705.00000 0.524103
6710.00000 0.521433
6715.00000 0.518736
6720.00000 0.516331
6725.00000 0.513686
6730.00000 0.511238
6735.00000 0.508541
6740.00000 0.505833
6745.00000 0.5033
6750.00000 0.500762
6755.00000 0.498016
6760.00000 0.49541
6765.00000 0.492713
6770.00000 0.490076
6775.00000 0.487338
6780.00000 0.484633
6785.00000 0.482196
6790.00000 0.479352
6795.00000 0.476699
6800.00000 0.473846
6805.00000 0.471191
6810.00000 0.468349
6815.00000 0.465718
6820.00000 0.462924
6825.00000 0.46024
6830.00000 0.457532
6835.00000 0.454607
6840.00000 0.452023
6845.00000 0.44916
6850.00000 0.446378
6855.00000 0.443675
6860.00000 0.440921
6865.00000 0.438262
6870.00000 0.435532
6875.00000 0.432731
6880.00000 0.430068
6885.00000 0.427353
6890.00000 0.424597
6895.00000 0.421923
6900.00000 0.419208
6905.00000 0.416464
6910.00000 0.413729
6915.00000 0.410942
6920.00000 0.40824
6925.00000 0.405574
6930.00000 0.402717
6935.00000 0.400115
6940.00000 0.397306
6945.00000 0.394707
6950.00000 0.391972
6955.00000 0.389236
6960.00000 0.386602
6965.00000 0.383922
6970.00000 0.381188
6975.00000 0.378668
6980.00000 0.375933
6985.00000 0.373282
6990.00000 0.370752
6995.00000 0.368036
7000.00000 0.365506
7005.00000 0.362824
7010.00000 0.36021
7015.00000 0.357738
7020.00000 0.35504
7025.00000 0.352505
7030.00000 0.349846
7035.00000 0.347339
7040.00000 0.344725
7045.00000 0.342263
7050.00000 0.339577
7055.00000 0.337158
7060.00000 0.334472
7065.00000 0.332086
7070.00000 0.329518
7075.00000 0.327067
7080.00000 0.324548
7085.00000 0.322112
7090.00000 0.31954
7095.00000 0.317183
7100.00000 0.31471
7105.00000 0.312346
7110.00000 0.309945
7115.00000 0.307418
7120.00000 0.305019
7125.00000 0.302671
7130.00000 0.300197
7135.00000 0.297956
7140.00000 0.295511
7145.00000 0.293021
7150.00000 0.290764
7155.00000 0.288388
7160.00000 0.286151
7165.00000 0.283664
7170.00000 0.281309
7175.00000 0.279154
7180.00000 0.27691
7185.00000 0.274534
7190.00000 0.272286
7195.00000 0.269989
7200.00000 0.267869
7205.00000 0.265505
7210.00000 0.263302
7215.00000 0.261187
7220.00000 0.258985
7225.00000 0.256745
7230.00000 0.254657
7235.00000 0.252344
7240.00000 0.25029
7245.00000 0.24813
7250.00000 0.245982
7255.00000 0.243843
7260.00000 0.241686
7265.00000 0.239584
7270.00000 0.237461
7275.00000 0.235291
7280.00000 0.233328
7285.00000 0.231283
7290.00000 0.229093
7295.00000 0.227117
7300.00000 0.225113
7305.00000 0.223046
7310.00000 0.221121
7315.00000 0.218994
7320.00000 0.217073
7325.00000 0.215081
7330.00000 0.213109
7335.00000 0.211159
7340.00000 0.209163
7345.00000 0.207238
7350.00000 0.205301
7355.00000 0.203313
7360.00000 0.201435
7365.00000 0.199586
7370.00000 0.197545
7375.00000 0.195791
7380.00000 0.193888
7385.00000 0.19188
7390.00000 0.190065
7395.00000 0.188309
7400.00000 0.186381
7405.00000 0.18455
7410.00000 0.182803
7415.00000 0.181004
7420.00000 0.179097
7425.00000 0.177381
7430.00000 0.175662
7435.00000 0.173873
7440.00000 0.172102
7445.00000 0.170383
7450.00000 0.168712
7455.00000 0.166952
7460.00000 0.165286
7465.00000 0.163544
7470.00000 0.161887
7475.00000 0.160138
7480.00000 0.158482
7485.00000 0.15682
7490.00000 0.155186
7495.00000 0.153593
7500.00000 0.151918
7505.00000 0.150307
7510.00000 0.148757
7515.00000 0.147116
7520.00000 0.145524
7525.00000 0.143934
7530.00000 0.142388
7535.00000 0.1408
7540.00000 0.13933
7545.00000 0.137789
7550.00000 0.136288
7555.00000 0.134756
7560.00000 0.133265
7565.00000 0.131783
7570.00000 0.13032
7575.00000 0.128851
7580.00000 0.127361
7585.00000 0.125968
7590.00000 0.124564
7595.00000 0.123105
7600.00000 0.121688
7605.00000 0.120267
7610.00000 0.118885
7615.00000 0.1175
7620.00000 0.116126
7625.00000 0.114747
7630.00000 0.113482
7635.00000 0.11207
7640.00000 0.110794
7645.00000 0.109504
7650.00000 0.108167
7655.00000 0.106919
7660.00000 0.105636
7665.00000 0.104357
7670.00000 0.103161
7675.00000 0.101922
7680.00000 0.100733
7685.00000 0.099492
7690.00000 0.098227
7695.00000 0.09704
7700.00000 0.095865
7705.00000 0.094612
7710.00000 0.093525
7715.00000 0.092356
7720.00000 0.091211
7725.00000 0.090118
7730.00000 0.088966
7735.00000 0.087885
7740.00000 0.086736
7745.00000 0.085662
7750.00000 0.084634
7755.00000 0.083512
7760.00000 0.082469
7765.00000 0.081394
7770.00000 0.080332
7775.00000 0.079314
7780.00000 0.078307
7785.00000 0.077326
7790.00000 0.076324
7795.00000 0.075352
7800.00000 0.074322
7805.00000 0.073329
7810.00000 0.072418
7815.00000 0.071491
7820.00000 0.070513
7825.00000 0.069642
7830.00000 0.06872
7835.00000 0.067773
7840.00000 0.066856
7845.00000 0.065995
7850.00000 0.065094
7855.00000 0.064231
7860.00000 0.063408
7865.00000 0.062507
7870.00000 0.061724
7875.00000 0.060896
7880.00000 0.060063
7885.00000 0.059288
7890.00000 0.058446
7895.00000 0.057633
7900.00000 0.056863
7905.00000 0.056079
7910.00000 0.055293
7915.00000 0.054592
7920.00000 0.053813
7925.00000 0.053034
7930.00000 0.052291
7935.00000 0.051578
7940.00000 0.050853
7945.00000 0.050176
7950.00000 0.049496
7955.00000 0.048797
7960.00000 0.04811
7965.00000 0.047463
7970.00000 0.046762
7975.00000 0.046103
7980.00000 0.045441
7985.00000 0.044804
7990.00000 0.044151
7995.00000 0.043507
8000.00000 0.042893
8005.00000 0.042305
8010.00000 0.041662
8015.00000 0.041092
8020.00000 0.040487
8025.00000 0.039928
8030.00000 0.039316
8035.00000 0.03876
8040.00000 0.038194
8045.00000 0.037652
8050.00000 0.037079
8055.00000 0.036525
8060.00000 0.036013
8065.00000 0.035463
8070.00000 0.034942
8075.00000 0.034478
8080.00000 0.033947
8085.00000 0.03344
8090.00000 0.032942
8095.00000 0.032468
8100.00000 0.031994
8105.00000 0.031496
8110.00000 0.031017
8115.00000 0.030569
8120.00000 0.030101
8125.00000 0.02963
8130.00000 0.029217
8135.00000 0.028798
8140.00000 0.028368
8145.00000 0.027864
8150.00000 0.027503
8155.00000 0.02704
8160.00000 0.026626
8165.00000 0.026297
8170.00000 0.02586
8175.00000 0.0255
8180.00000 0.025051
8185.00000 0.024699
8190.00000 0.024293
8195.00000 0.023928
8200.00000 0.023556
8205.00000 0.023183
8210.00000 0.022854
8215.00000 0.022475
8220.00000 0.022093
8225.00000 0.021786
8230.00000 0.02145
8235.00000 0.021116
8240.00000 0.020788
8245.00000 0.020426
8250.00000 0.020133
8255.00000 0.019786
8260.00000 0.019512
8265.00000 0.019169
8270.00000 0.018881
8275.00000 0.018579
8280.00000 0.018282
8285.00000 0.018019
8290.00000 0.017752
8295.00000 0.01744
8300.00000 0.017149
8305.00000 0.016872
8310.00000 0.016624
8315.00000 0.016347
8320.00000 0.01613
8325.00000 0.015867
8330.00000 0.015564
8335.00000 0.015318
8340.00000 0.015062
8345.00000 0.014836
8350.00000 0.014593
8355.00000 0.014363
8360.00000 0.014165
8365.00000 0.013918
8370.00000 0.013686
8375.00000 0.013444
8380.00000 0.013239
8385.00000 0.013
8390.00000 0.012808
8395.00000 0.012621
8400.00000 0.012358
8405.00000 0.012199
8410.00000 0.011975
8415.00000 0.011758
8420.00000 0.01162
8425.00000 0.011412
8430.00000 0.011193
8435.00000 0.011055
8440.00000 0.010879
8445.00000 0.010668
8450.00000 0.010497
8455.00000 0.010343
8460.00000 0.010168
8465.00000 0.01001
8470.00000 0.009762
8475.00000 0.009594
8480.00000 0.009476
8485.00000 0.009311
8490.00000 0.009152
8495.00000 0.008989
8500.00000 0.008864
8505.00000 0.008713
8510.00000 0.00858
8515.00000 0.008435
8520.00000 0.008263
8525.00000 0.008164
8530.00000 0.008045
8535.00000 0.007891
8540.00000 0.007721
8545.00000 0.007568
8550.00000 0.00751
8555.00000 0.007295
8560.00000 0.007267
8565.00000 0.00712
8570.00000 0.006959
8575.00000 0.006919
8580.00000 0.006742
8585.00000 0.006662
8590.00000 0.006485
8595.00000 0.006338
8600.00000 0.006336
8605.00000 0.006224
8610.00000 0.006074
8615.00000 0.005939
8620.00000 0.005909
8625.00000 0.005802
8630.00000 0.0057
8635.00000 0.005544
8640.00000 0.005446
8645.00000 0.005324
8650.00000 0.00529
8655.00000 0.005151
8660.00000 0.005096
8665.00000 0.004971
8670.00000 0.00496
8675.00000 0.004892
8680.00000 0.004799
8685.00000 0.004739
8690.00000 0.004626
8695.00000 0.004519
8700.00000 0.004477
8705.00000 0.004436
8710.00000 0.004233
8715.00000 0.00425
8720.00000 0.004134
8725.00000 0.00416
8730.00000 0.003978
8735.00000 0.00395
8740.00000 0.003916
8745.00000 0.003865
8750.00000 0.003685
8755.00000 0.003652
8760.00000 0.003563
8765.00000 0.003617
8770.00000 0.003551
8775.00000 0.003385
8780.00000 0.00338
8785.00000 0.00335
8790.00000 0.003271
8795.00000 0.00317
8800.00000 0.00322
8805.00000 0.003065
8810.00000 0.002974
8815.00000 0.002949
8820.00000 0.002915
8825.00000 0.002801
8830.00000 0.00292
8835.00000 0.002853
8840.00000 0.002628
8845.00000 0.002609
8850.00000 0.002686
8855.00000 0.00265
8860.00000 0.002447
8865.00000 0.002534
8870.00000 0.002486
8875.00000 0.002359
8880.00000 0.002362
8885.00000 0.002264
8890.00000 0.002267
8895.00000 0.002252
8900.00000 0.002215
8905.00000 0.002193
8910.00000 0.002125
8915.00000 0.00212
8920.00000 0.00207
8925.00000 0.001932
8930.00000 0.001935
8935.00000 0.00186
8940.00000 0.001946
8945.00000 0.001879
8950.00000 0.00187
8955.00000 0.001814
8960.00000 0.00173
8965.00000 0.001878
8970.00000 0.001731
8975.00000 0.001676
8980.00000 0.001581
8985.00000 0.001622
8990.00000 0.001664
8995.00000 0.001498
9000.00000 0.001503
9005.00000 0.001462
9010.00000 0.001413
9015.00000 0.001403
9020.00000 0.001358
9025.00000 0.00136
9030.00000 0.00136
9035.00000 0.00129
9040.00000 0.001261
9045.00000 0.001274
9050.00000 0.00119
9055.00000 0.001183
9060.00000 0.001197
9065.00000 0.00121
9070.00000 0.001105
9075.00000 0.001105
9080.00000 0.001107
9085.00000 0.001052
9090.00000 0.001052
9095.00000 0.001059
9100.00000 0.001051
9105.00000 0.000985
9110.00000 0.000988
9115.00000 0.000962
9120.00000 0.000928
9125.00000 0.000938
9130.00000 0.000912
9135.00000 0.000883
9140.00000 0.000869
9145.00000 0.000865
9150.00000 0.000859
9155.00000 0.00084
9160.00000 0.000852
9165.00000 0.000775
9170.00000 0.000744
9175.00000 0.000761
9180.00000 0.000803
9185.00000 0.00073
9190.00000 0.000713
9195.00000 0.000725
9200.00000 0.000715
9205.00000 0.000705
9210.00000 0.000646
9215.00000 0.000687
9220.00000 0.00069
9225.00000 0.000644
9230.00000 0.00064
9235.00000 0.00058
9240.00000 0.000609
9245.00000 0.000618
9250.00000 0.00057
9255.00000 0.000541
9260.00000 0.000528
9265.00000 0.000559
9270.00000 0.000551
9275.00000 0.000474
9280.00000 0.000515
9285.00000 0.000529
9290.00000 0.000499
9295.00000 0.000465
9300.00000 0.000496
9305.00000 0.000463
9310.00000 0.000443
9315.00000 0.000414
9320.00000 0.000468
9325.00000 0.000443
9330.00000 0.000409
9335.00000 0.000419
9340.00000 0.000399
9345.00000 0.000408
9350.00000 0.000448
9355.00000 0.000413
9360.00000 0.00035
9365.00000 0.000375
9370.00000 0.000379
9375.00000 0.000347
9380.00000 0.000311
9385.00000 0.000342
9390.00000 0.000339
9395.00000 0.000317
9400.00000 0.000337
9405.00000 0.000301
9410.00000 0.000288
9415.00000 0.0003
9420.00000 0.000342
9425.00000 0.000284
9430.00000 0.000299
9435.00000 0.000283
9440.00000 0.000289
9445.00000 0.0003
9450.00000 0.000236
9455.00000 0.00028
9460.00000 0.000273
9465.00000 0.000207
9470.00000 0.000216
9475.00000 0.000262
9480.00000 0.000226
9485.00000 0.000231
9490.00000 0.000243
9495.00000 0.000197
9500.00000 0.000242
9505.00000 0.000215
9510.00000 0.000194
9515.00000 0.000192
9520.00000 0.000172
9525.00000 0.00021
9530.00000 0.000163
9535.00000 0.000158
9540.00000 0.000186
9545.00000 0.000163
9550.00000 0.000158
9555.00000 0.000172
9560.00000 0.000147
9565.00000 0.000146
9570.00000 0.000159
9575.00000 0.000173
9580.00000 0.000115
9585.00000 0.000116
9590.00000 0.000133
9595.00000 0.00015
9600.00000 0.000135
9605.00000 7.8e-05
9610.00000 0.000146
9615.00000 0.000123
9620.00000 0.000114
9625.00000 5.6e-05
9630.00000 0.000147
9635.00000 0.000151
9640.00000 0.000114
9645.00000 6.8e-05
9650.00000 0.000123
9655.00000 7.2e-05
9660.00000 8.5e-05
9665.00000 0.000105
9670.00000 8.1e-05
9675.00000 9.7e-05
9680.00000 6.7e-05
9685.00000 9.2e-05
9690.00000 6.5e-05
9695.00000 6.2e-05
9700.00000 9.7e-05
9705.00000 7.4e-05
9710.00000 6.9e-05
9715.00000 3.6e-05
9720.00000 9.2e-05
9725.00000 8.2e-05
9730.00000 4.7e-05
9735.00000 5.7e-05
9740.00000 6.7e-05
9745.00000 3.3e-05
9750.00000 5.8e-05
9755.00000 5.9e-05
9760.00000 2.5e-05
9765.00000 2.4e-05
9770.00000 4.1e-05
9775.00000 7.5e-05
9780.00000 3.8e-05
9785.00000 1.6e-05
9790.00000 3.1e-05
9795.00000 1.3e-05
9800.00000 1.7e-05
10780.00000 0.0
