# %ECSV 0.9
# ---
# datatype:
# - {name: wavelength, unit: Angstrom, datatype: float32}
# - {name: response, datatype: float32}
# meta: !!omap
# - {band_name: Sloan_z}
# - {group_name: WiFSIP}
wavelength response
7069.50000 0.0
7855.00000 2.8e-05
7860.00000 1.2e-05
7865.00000 2.7e-05
7870.00000 1.4e-05
7875.00000 2.7e-05
7880.00000 2.1e-05
7885.00000 2.9e-05
7890.00000 2.7e-05
7895.00000 1.4e-05
7900.00000 2.2e-05
7905.00000 2.8e-05
7910.00000 3e-05
7915.00000 4.6e-05
7920.00000 3.8e-05
7925.00000 4.4e-05
7930.00000 4.2e-05
7935.00000 5.6e-05
7940.00000 5.5e-05
7945.00000 7.3e-05
7950.00000 7.9e-05
7955.00000 8.1e-05
7960.00000 8e-05
7965.00000 0.000102
7970.00000 0.000105
7975.00000 0.000112
7980.00000 0.000119
7985.00000 0.000139
7990.00000 0.000138
7995.00000 0.000157
8000.00000 0.000163
8005.00000 0.00019
8010.00000 0.000208
8015.00000 0.000218
8020.00000 0.000256
8025.00000 0.000279
8030.00000 0.0003
8035.00000 0.000339
8040.00000 0.000384
8045.00000 0.000409
8050.00000 0.000449
8055.00000 0.00047
8060.00000 0.000552
8065.00000 0.000607
8070.00000 0.000683
8075.00000 0.000751
8080.00000 0.000821
8085.00000 0.000915
8090.00000 0.001005
8095.00000 0.001142
8100.00000 0.001272
8105.00000 0.001392
8110.00000 0.001557
8115.00000 0.001741
8120.00000 0.001959
8125.00000 0.002191
8130.00000 0.00244
8135.00000 0.002747
8140.00000 0.003079
8145.00000 0.003474
8150.00000 0.003924
8155.00000 0.004404
8160.00000 0.004976
8165.00000 0.005627
8170.00000 0.006382
8175.00000 0.007225
8180.00000 0.008188
8185.00000 0.009347
8190.00000 0.010605
8195.00000 0.012047
8200.00000 0.013822
8205.00000 0.015777
8210.00000 0.018133
8215.00000 0.0208
8220.00000 0.023857
8225.00000 0.027433
8230.00000 0.031556
8235.00000 0.036338
8240.00000 0.042143
8245.00000 0.048653
8250.00000 0.056335
8255.00000 0.065325
8260.00000 0.075359
8265.00000 0.08746
8270.00000 0.101108
8275.00000 0.11698
8280.00000 0.135707
8285.00000 0.156687
8290.00000 0.180342
8295.00000 0.207868
8300.00000 0.237761
8305.00000 0.271636
8310.00000 0.308926
8315.00000 0.349312
8320.00000 0.393009
8325.00000 0.437667
8330.00000 0.485494
8335.00000 0.535011
8340.00000 0.582867
8345.00000 0.631236
8350.00000 0.677033
8355.00000 0.719713
8360.00000 0.760493
8365.00000 0.795862
8370.00000 0.827713
8375.00000 0.856644
8380.00000 0.880424
8385.00000 0.900433
8390.00000 0.917142
8395.00000 0.93034
8400.00000 0.941645
8405.00000 0.949567
8410.00000 0.956353
8415.00000 0.96052
8420.00000 0.964566
8425.00000 0.965971
8430.00000 0.966558
8435.00000 0.966631
8440.00000 0.965581
8445.00000 0.964572
8450.00000 0.963142
8455.00000 0.960329
8460.00000 0.958441
8465.00000 0.955599
8470.00000 0.953144
8475.00000 0.95096
8480.00000 0.947899
8485.00000 0.944874
8490.00000 0.942608
8495.00000 0.938995
8500.00000 0.936965
8505.00000 0.933276
8510.00000 0.930295
8515.00000 0.927921
8520.00000 0.925828
8525.00000 0.924497
8530.00000 0.921827
8535.00000 0.92124
8540.00000 0.918098
8545.00000 0.916465
8550.00000 0.91609
8555.00000 0.914586
8560.00000 0.913149
8565.00000 0.913392
8570.00000 0.914286
8575.00000 0.91255
8580.00000 0.914242
8585.00000 0.914879
8590.00000 0.913549
8595.00000 0.914567
8600.00000 0.916592
8605.00000 0.917411
8610.00000 0.918306
8615.00000 0.918737
8620.00000 0.922033
8625.00000 0.923287
8630.00000 0.925305
8635.00000 0.927377
8640.00000 0.929409
8645.00000 0.931085
8650.00000 0.935213
8655.00000 0.935764
8660.00000 0.937326
8665.00000 0.940178
8670.00000 0.941605
8675.00000 0.944593
8680.00000 0.94579
8685.00000 0.948177
8690.00000 0.950771
8695.00000 0.953116
8700.00000 0.954998
8705.00000 0.957579
8710.00000 0.955303
8715.00000 0.957786
8720.00000 0.957604
8725.00000 0.961478
8730.00000 0.96176
8735.00000 0.963319
8740.00000 0.964386
8745.00000 0.96082
8750.00000 0.962184
8755.00000 0.965808
8760.00000 0.965974
8765.00000 0.967648
8770.00000 0.965979
8775.00000 0.964207
8780.00000 0.962274
8785.00000 0.96287
8790.00000 0.961076
8795.00000 0.959881
8800.00000 0.960901
8805.00000 0.963093
8810.00000 0.960166
8815.00000 0.95945
8820.00000 0.956778
8825.00000 0.960622
8830.00000 0.957439
8835.00000 0.954202
8840.00000 0.95353
8845.00000 0.949308
8850.00000 0.950337
8855.00000 0.954334
8860.00000 0.946728
8865.00000 0.949951
8870.00000 0.955424
8875.00000 0.949038
8880.00000 0.948247
8885.00000 0.949688
8890.00000 0.944611
8895.00000 0.947864
8900.00000 0.943031
8905.00000 0.946733
8910.00000 0.947422
8915.00000 0.946944
8920.00000 0.947318
8925.00000 0.946724
8930.00000 0.94919
8935.00000 0.948364
8940.00000 0.946484
8945.00000 0.946424
8950.00000 0.947607
8955.00000 0.947441
8960.00000 0.94639
8965.00000 0.948959
8970.00000 0.954916
8975.00000 0.952005
8980.00000 0.954868
8985.00000 0.948462
8990.00000 0.950657
8995.00000 0.960994
9000.00000 0.96149
9005.00000 0.961988
9010.00000 0.962901
9015.00000 0.963735
9020.00000 0.96456
9025.00000 0.965119
9030.00000 0.965709
9035.00000 0.966261
9040.00000 0.966625
9045.00000 0.967449
9050.00000 0.967902
9055.00000 0.968274
9060.00000 0.96874
9065.00000 0.969088
9070.00000 0.969173
9075.00000 0.969566
9080.00000 0.969665
9085.00000 0.969943
9090.00000 0.969963
9095.00000 0.970014
9100.00000 0.969913
9105.00000 0.969804
9110.00000 0.969662
9115.00000 0.969451
9120.00000 0.969144
9125.00000 0.968835
9130.00000 0.968358
9135.00000 0.968026
9140.00000 0.9675
9145.00000 0.967205
9150.00000 0.966539
9155.00000 0.966066
9160.00000 0.965636
9165.00000 0.964804
9170.00000 0.964226
9175.00000 0.963456
9180.00000 0.962798
9185.00000 0.962104
9190.00000 0.961411
9195.00000 0.960836
9200.00000 0.960047
9205.00000 0.959233
9210.00000 0.958549
9215.00000 0.957993
9220.00000 0.957285
9225.00000 0.956676
9230.00000 0.955982
9235.00000 0.955432
9240.00000 0.954922
9245.00000 0.954217
9250.00000 0.953801
9255.00000 0.953274
9260.00000 0.952798
9265.00000 0.952409
9270.00000 0.952075
9275.00000 0.951822
9280.00000 0.951284
9285.00000 0.951238
9290.00000 0.951096
9295.00000 0.950944
9300.00000 0.950926
9305.00000 0.950689
9310.00000 0.950699
9315.00000 0.950718
9320.00000 0.950874
9325.00000 0.950953
9330.00000 0.951182
9335.00000 0.951356
9340.00000 0.951731
9345.00000 0.951968
9350.00000 0.952235
9355.00000 0.952654
9360.00000 0.9531
9365.00000 0.953663
9370.00000 0.953971
9375.00000 0.954469
9380.00000 0.954824
9385.00000 0.95544
9390.00000 0.956079
9395.00000 0.956546
9400.00000 0.957359
9405.00000 0.95794
9410.00000 0.958465
9415.00000 0.959089
9420.00000 0.959764
9425.00000 0.96023
9430.00000 0.961068
9435.00000 0.961685
9440.00000 0.962224
9445.00000 0.962816
9450.00000 0.963413
9455.00000 0.963915
9460.00000 0.964492
9465.00000 0.964922
9470.00000 0.965436
9475.00000 0.965761
9480.00000 0.966352
9485.00000 0.96688
9490.00000 0.967124
9495.00000 0.967512
9500.00000 0.967804
9505.00000 0.968165
9510.00000 0.968465
9515.00000 0.968518
9520.00000 0.968745
9525.00000 0.968959
9530.00000 0.969067
9535.00000 0.969008
9540.00000 0.968917
9545.00000 0.969073
9550.00000 0.969032
9555.00000 0.968766
9560.00000 0.968705
9565.00000 0.968447
9570.00000 0.968354
9575.00000 0.96802
9580.00000 0.967848
9585.00000 0.967428
9590.00000 0.967116
9595.00000 0.966789
9600.00000 0.966338
9605.00000 0.965969
9610.00000 0.965531
9615.00000 0.964854
9620.00000 0.964479
9625.00000 0.963979
9630.00000 0.963386
9635.00000 0.962891
9640.00000 0.962199
9645.00000 0.96171
9650.00000 0.961247
9655.00000 0.960379
9660.00000 0.959869
9665.00000 0.959382
9670.00000 0.958686
9675.00000 0.958137
9680.00000 0.957409
9685.00000 0.956956
9690.00000 0.956161
9695.00000 0.955649
9700.00000 0.955052
9705.00000 0.954593
9710.00000 0.95395
9715.00000 0.953438
9720.00000 0.952827
9725.00000 0.952617
9730.00000 0.952096
9735.00000 0.951675
9740.00000 0.951309
9745.00000 0.950837
9750.00000 0.950506
9755.00000 0.950027
9760.00000 0.949876
9765.00000 0.949574
9770.00000 0.949408
9775.00000 0.949167
9780.00000 0.949031
9785.00000 0.949013
9790.00000 0.948937
9795.00000 0.94884
9800.00000 0.948842
9805.00000 0.948865
9810.00000 0.949018
9815.00000 0.948975
9820.00000 0.949196
9825.00000 0.949241
9830.00000 0.949629
9835.00000 0.949786
9840.00000 0.950088
9845.00000 0.950284
9850.00000 0.950753
9855.00000 0.951068
9860.00000 0.951457
9865.00000 0.951852
9870.00000 0.952463
9875.00000 0.952847
9880.00000 0.953288
9885.00000 0.953811
9890.00000 0.954147
9895.00000 0.954971
9900.00000 0.955309
9905.00000 0.955936
9910.00000 0.956645
9915.00000 0.957156
9920.00000 0.957699
9925.00000 0.958128
9930.00000 0.958901
9935.00000 0.959632
9940.00000 0.960353
9945.00000 0.960745
9950.00000 0.961341
9955.00000 0.962069
9960.00000 0.962676
9965.00000 0.963167
9970.00000 0.963827
9975.00000 0.964368
9980.00000 0.964974
9985.00000 0.965508
9990.00000 0.966085
9995.00000 0.966565
10000.00000 0.966996
10005.00000 0.967577
10010.00000 0.967977
10015.00000 0.968271
10020.00000 0.968757
10025.00000 0.969209
10030.00000 0.969465
10035.00000 0.969755
10040.00000 0.970004
10045.00000 0.970326
10050.00000 0.97051
10055.00000 0.970619
10060.00000 0.970874
10065.00000 0.970999
10070.00000 0.971067
10075.00000 0.971107
10080.00000 0.971238
10085.00000 0.971124
10090.00000 0.971145
10095.00000 0.970968
10100.00000 0.970803
10105.00000 0.970612
10110.00000 0.970434
10115.00000 0.970333
10120.00000 0.970033
10125.00000 0.969801
10130.00000 0.969375
10135.00000 0.968982
10140.00000 0.968697
10145.00000 0.968168
10150.00000 0.967696
10155.00000 0.967176
10160.00000 0.966648
10165.00000 0.966166
10170.00000 0.965514
10175.00000 0.96527
10180.00000 0.964497
10185.00000 0.963805
10190.00000 0.963212
10195.00000 0.962428
10200.00000 0.961939
10205.00000 0.961109
10210.00000 0.96053
10215.00000 0.95993
10220.00000 0.959135
10225.00000 0.958307
10230.00000 0.957677
10235.00000 0.956941
10240.00000 0.956305
10245.00000 0.955272
10250.00000 0.954613
10255.00000 0.954033
10260.00000 0.953118
10265.00000 0.95229
10270.00000 0.951779
10275.00000 0.951038
10280.00000 0.950387
10285.00000 0.949543
10290.00000 0.948976
10295.00000 0.948268
10300.00000 0.947592
10305.00000 0.947036
10310.00000 0.946485
10315.00000 0.945782
10320.00000 0.945169
10325.00000 0.944815
10330.00000 0.944198
10335.00000 0.94375
10340.00000 0.943227
10345.00000 0.942761
10350.00000 0.942262
10355.00000 0.942
10360.00000 0.941622
10365.00000 0.941225
10370.00000 0.940946
10375.00000 0.940665
10380.00000 0.940476
10385.00000 0.94017
10390.00000 0.939878
10395.00000 0.939785
10400.00000 0.939745
10405.00000 0.939632
10410.00000 0.939376
10415.00000 0.939406
10420.00000 0.939424
10425.00000 0.939545
10430.00000 0.939364
10435.00000 0.939474
10440.00000 0.939627
10445.00000 0.93973
10450.00000 0.939898
10455.00000 0.9401
10460.00000 0.940371
10465.00000 0.940425
10470.00000 0.94071
10475.00000 0.941108
10480.00000 0.941439
10485.00000 0.941641
10490.00000 0.942048
10495.00000 0.942596
10500.00000 0.942966
10505.00000 0.943327
10510.00000 0.943896
10515.00000 0.944313
10520.00000 0.944768
10525.00000 0.94528
10530.00000 0.945871
10535.00000 0.946317
10540.00000 0.946935
10545.00000 0.947466
10550.00000 0.948112
10555.00000 0.9487
10560.00000 0.949325
10565.00000 0.949971
10570.00000 0.950648
10575.00000 0.95128
10580.00000 0.951999
10585.00000 0.952502
10590.00000 0.953141
10595.00000 0.953909
10600.00000 0.9546
10605.00000 0.955291
10610.00000 0.956031
10615.00000 0.956586
10620.00000 0.957314
10625.00000 0.957895
10630.00000 0.958611
10635.00000 0.959198
10640.00000 0.960015
10645.00000 0.960601
10650.00000 0.960876
10655.00000 0.961459
10660.00000 0.962295
10665.00000 0.962975
10670.00000 0.963515
10675.00000 0.963985
10680.00000 0.964466
10685.00000 0.965039
10690.00000 0.965588
10695.00000 0.966293
10700.00000 0.966732
10705.00000 0.967071
10710.00000 0.967368
10715.00000 0.96779
10720.00000 0.968371
10725.00000 0.968602
10730.00000 0.968733
10735.00000 0.969055
10740.00000 0.969635
10745.00000 0.969774
10750.00000 0.969815
10755.00000 0.969977
10760.00000 0.970062
10765.00000 0.970303
10770.00000 0.970626
10775.00000 0.970861
10780.00000 0.970942
10785.00000 0.970921
10790.00000 0.970896
10795.00000 0.970876
10800.00000 0.970742
10805.00000 0.970763
10810.00000 0.970811
10815.00000 0.970744
10820.00000 0.970505
10825.00000 0.970415
10830.00000 0.970352
10835.00000 0.970157
10840.00000 0.969977
10845.00000 0.969748
10850.00000 0.969481
10855.00000 0.969176
10860.00000 0.969009
10865.00000 0.968789
10870.00000 0.968331
10875.00000 0.96807
10880.00000 0.967772
10885.00000 0.967462
10890.00000 0.967012
10895.00000 0.966704
10900.00000 0.9664
10905.00000 0.965996
10910.00000 0.965712
10915.00000 0.965267
10920.00000 0.964932
10925.00000 0.96456
10930.00000 0.96421
10935.00000 0.963757
10940.00000 0.963477
10945.00000 0.963091
10950.00000 0.962538
10955.00000 0.962176
10960.00000 0.961757
10965.00000 0.961411
10970.00000 0.960926
10975.00000 0.960616
10980.00000 0.960097
10985.00000 0.959561
10990.00000 0.959511
10995.00000 0.959031
11000.00000 0.958655
12100.00000 0.0
