# %ECSV 0.9
# ---
# datatype:
# - {name: wavelength, unit: Angstrom, datatype: float32}
# - {name: response, datatype: float32}
# meta: !!omap
# - {band_name: K}
# - {group_name: Kepler}
wavelength response
3132.00000 0.0
3480.00000 0.000112
3490.00000 0.000151
3500.00000 0.000158
3510.00000 0.000193
3520.00000 0.000227
3530.00000 0.000234
3540.00000 0.000217
3550.00000 0.00023
3560.00000 0.000278
3570.00000 0.000329
3580.00000 0.000381
3590.00000 0.000424
3600.00000 0.000454
3610.00000 0.0005
3620.00000 0.000549
3630.00000 0.000607
3640.00000 0.000679
3650.00000 0.000741
3660.00000 0.000789
3670.00000 0.000832
3680.00000 0.000864
3690.00000 0.00089
3700.00000 0.000908
3710.00000 0.000926
3720.00000 0.000937
3730.00000 0.000937
3740.00000 0.00094
3750.00000 0.001
3760.00000 0.000991
3770.00000 0.000987
3780.00000 0.000974
3790.00000 0.000952
3800.00000 0.000926
3810.00000 0.000904
3820.00000 0.000873
3830.00000 0.000839
3840.00000 0.000806
3850.00000 0.000777
3860.00000 0.000738
3870.00000 0.0007
3880.00000 0.000661
3890.00000 0.000617
3900.00000 0.000583
3910.00000 0.000556
3920.00000 0.000536
3930.00000 0.0005
3940.00000 0.000451
3950.00000 0.000398
3960.00000 0.00037
3970.00000 0.000379
3980.00000 0.0004
3990.00000 0.000414
4000.00000 0.000395
4010.00000 0.000342
4020.00000 0.000297
4030.00000 0.000285
4040.00000 0.000331
4050.00000 0.000398
4060.00000 0.000467
4070.00000 0.000512
4080.00000 0.000538
4090.00000 0.000578
4100.00000 0.000691
4110.00000 0.000966
4120.00000 0.001441
4130.00000 0.002082
4140.00000 0.002756
4150.00000 0.003377
4160.00000 0.003994
4170.00000 0.004842
4180.00000 0.006326
4190.00000 0.008848
4200.00000 0.01278
4210.00000 0.01821
4220.00000 0.02507
4230.00000 0.03332
4240.00000 0.04333
4250.00000 0.0563
4260.00000 0.07321
4270.00000 0.09461
4280.00000 0.1205
4290.00000 0.1501
4300.00000 0.1815
4310.00000 0.2125
4320.00000 0.2417
4330.00000 0.2704
4340.00000 0.2988
4350.00000 0.3282
4360.00000 0.3559
4370.00000 0.3811
4380.00000 0.402
4390.00000 0.4173
4400.00000 0.4278
4410.00000 0.436
4420.00000 0.4409
4430.00000 0.445
4440.00000 0.4487
4450.00000 0.4519
4460.00000 0.4553
4470.00000 0.4585
4480.00000 0.4617
4490.00000 0.4638
4500.00000 0.4648
4510.00000 0.4656
4520.00000 0.4669
4530.00000 0.4685
4540.00000 0.4725
4550.00000 0.4777
4560.00000 0.4843
4570.00000 0.4912
4580.00000 0.4966
4590.00000 0.5002
4600.00000 0.5023
4610.00000 0.5023
4620.00000 0.5015
4630.00000 0.501
4640.00000 0.5021
4650.00000 0.5042
4660.00000 0.5087
4670.00000 0.5149
4680.00000 0.5217
4690.00000 0.5284
4700.00000 0.5335
4710.00000 0.5362
4720.00000 0.5376
4730.00000 0.5375
4740.00000 0.5365
4750.00000 0.536
4760.00000 0.5375
4770.00000 0.5403
4780.00000 0.5456
4790.00000 0.5522
4800.00000 0.5584
4810.00000 0.5652
4820.00000 0.5696
4830.00000 0.5729
4840.00000 0.5765
4850.00000 0.5786
4860.00000 0.5811
4870.00000 0.5837
4880.00000 0.5876
4890.00000 0.5918
4900.00000 0.5964
4910.00000 0.6012
4920.00000 0.6052
4930.00000 0.6076
4940.00000 0.6095
4950.00000 0.6103
4960.00000 0.611
4970.00000 0.612
4980.00000 0.6143
4990.00000 0.6183
5000.00000 0.6239
5010.00000 0.629
5020.00000 0.6341
5030.00000 0.6393
5040.00000 0.6431
5050.00000 0.6455
5060.00000 0.645
5070.00000 0.6435
5080.00000 0.6409
5090.00000 0.6371
5100.00000 0.634
5110.00000 0.6317
5120.00000 0.6314
5130.00000 0.6324
5140.00000 0.6354
5150.00000 0.6392
5160.00000 0.6431
5170.00000 0.6473
5180.00000 0.651
5190.00000 0.654
5200.00000 0.6556
5210.00000 0.6567
5220.00000 0.658
5230.00000 0.6594
5240.00000 0.6608
5250.00000 0.6629
5260.00000 0.6652
5270.00000 0.6672
5280.00000 0.6695
5290.00000 0.671
5300.00000 0.672
5310.00000 0.6719
5320.00000 0.6708
5330.00000 0.6697
5340.00000 0.668
5350.00000 0.6665
5360.00000 0.6663
5370.00000 0.6672
5380.00000 0.6692
5390.00000 0.6722
5400.00000 0.676
5410.00000 0.68
5420.00000 0.6833
5430.00000 0.6858
5440.00000 0.6875
5450.00000 0.6875
5460.00000 0.6868
5470.00000 0.6855
5480.00000 0.6834
5490.00000 0.6819
5500.00000 0.6809
5510.00000 0.681
5520.00000 0.6832
5530.00000 0.6865
5540.00000 0.6897
5550.00000 0.6928
5560.00000 0.6972
5570.00000 0.7006
5580.00000 0.7023
5590.00000 0.7033
5600.00000 0.7035
5610.00000 0.7033
5620.00000 0.7021
5630.00000 0.7006
5640.00000 0.6997
5650.00000 0.6998
5660.00000 0.7
5670.00000 0.7022
5680.00000 0.7049
5690.00000 0.7072
5700.00000 0.7101
5710.00000 0.7128
5720.00000 0.715
5730.00000 0.7157
5740.00000 0.7153
5750.00000 0.7145
5760.00000 0.713
5770.00000 0.7115
5780.00000 0.7094
5790.00000 0.7076
5800.00000 0.7069
5810.00000 0.7071
5820.00000 0.7087
5830.00000 0.7112
5840.00000 0.7145
5850.00000 0.7177
5860.00000 0.7208
5870.00000 0.723
5880.00000 0.7244
5890.00000 0.725
5900.00000 0.7242
5910.00000 0.722
5920.00000 0.7189
5930.00000 0.7159
5940.00000 0.7131
5950.00000 0.7106
5960.00000 0.7088
5970.00000 0.7081
5980.00000 0.7084
5990.00000 0.7102
6000.00000 0.7135
6010.00000 0.7155
6020.00000 0.717
6030.00000 0.7188
6040.00000 0.7208
6050.00000 0.7214
6060.00000 0.7208
6070.00000 0.7185
6080.00000 0.7148
6090.00000 0.7106
6100.00000 0.7058
6110.00000 0.7003
6120.00000 0.6954
6130.00000 0.6904
6140.00000 0.686
6150.00000 0.6836
6160.00000 0.6815
6170.00000 0.6814
6180.00000 0.6812
6190.00000 0.6833
6200.00000 0.6855
6210.00000 0.6883
6220.00000 0.691
6230.00000 0.6936
6240.00000 0.695
6250.00000 0.6964
6260.00000 0.6967
6270.00000 0.6954
6280.00000 0.6932
6290.00000 0.6904
6300.00000 0.687
6310.00000 0.683
6320.00000 0.6798
6330.00000 0.6766
6340.00000 0.6729
6350.00000 0.6708
6360.00000 0.6686
6370.00000 0.6673
6380.00000 0.6672
6390.00000 0.6671
6400.00000 0.6679
6410.00000 0.6691
6420.00000 0.6703
6430.00000 0.6714
6440.00000 0.6727
6450.00000 0.673
6460.00000 0.674
6470.00000 0.6735
6480.00000 0.6727
6490.00000 0.6711
6500.00000 0.6701
6510.00000 0.6683
6520.00000 0.6674
6530.00000 0.6656
6540.00000 0.6638
6550.00000 0.6622
6560.00000 0.6608
6570.00000 0.6588
6580.00000 0.6584
6590.00000 0.6579
6600.00000 0.6568
6610.00000 0.6566
6620.00000 0.656
6630.00000 0.6558
6640.00000 0.6554
6650.00000 0.6556
6660.00000 0.6549
6670.00000 0.6559
6680.00000 0.6543
6690.00000 0.6539
6700.00000 0.6531
6710.00000 0.6529
6720.00000 0.6519
6730.00000 0.6511
6740.00000 0.6503
6750.00000 0.6491
6760.00000 0.6468
6770.00000 0.6465
6780.00000 0.645
6790.00000 0.6444
6800.00000 0.642
6810.00000 0.6407
6820.00000 0.64
6830.00000 0.6373
6840.00000 0.6355
6850.00000 0.6335
6860.00000 0.6318
6870.00000 0.6296
6880.00000 0.6276
6890.00000 0.6254
6900.00000 0.6242
6910.00000 0.6229
6920.00000 0.621
6930.00000 0.6197
6940.00000 0.6185
6950.00000 0.6172
6960.00000 0.6172
6970.00000 0.6163
6980.00000 0.6157
6990.00000 0.6165
7000.00000 0.6159
7010.00000 0.615
7020.00000 0.6135
7030.00000 0.6129
7040.00000 0.611
7050.00000 0.6104
7060.00000 0.6093
7070.00000 0.607
7080.00000 0.6065
7090.00000 0.6039
7100.00000 0.6025
7110.00000 0.6002
7120.00000 0.5968
7130.00000 0.5959
7140.00000 0.5933
7150.00000 0.5907
7160.00000 0.5889
7170.00000 0.586
7180.00000 0.584
7190.00000 0.582
7200.00000 0.5814
7210.00000 0.5784
7220.00000 0.5771
7230.00000 0.5762
7240.00000 0.5748
7250.00000 0.574
7260.00000 0.5725
7270.00000 0.5708
7280.00000 0.5706
7290.00000 0.5689
7300.00000 0.567
7310.00000 0.5666
7320.00000 0.5645
7330.00000 0.5638
7340.00000 0.5642
7350.00000 0.5613
7360.00000 0.5603
7370.00000 0.5595
7380.00000 0.5592
7390.00000 0.5582
7400.00000 0.5562
7410.00000 0.5549
7420.00000 0.5532
7430.00000 0.5523
7440.00000 0.5502
7450.00000 0.5486
7460.00000 0.5471
7470.00000 0.546
7480.00000 0.5439
7490.00000 0.5428
7500.00000 0.5412
7510.00000 0.5383
7520.00000 0.537
7530.00000 0.5359
7540.00000 0.5334
7550.00000 0.5321
7560.00000 0.5311
7570.00000 0.5284
7580.00000 0.5266
7590.00000 0.5247
7600.00000 0.5228
7610.00000 0.5207
7620.00000 0.5202
7630.00000 0.5172
7640.00000 0.515
7650.00000 0.5134
7660.00000 0.5113
7670.00000 0.5087
7680.00000 0.5053
7690.00000 0.5044
7700.00000 0.5022
7710.00000 0.5003
7720.00000 0.4982
7730.00000 0.4957
7740.00000 0.4934
7750.00000 0.4905
7760.00000 0.4892
7770.00000 0.4885
7780.00000 0.487
7790.00000 0.4855
7800.00000 0.4841
7810.00000 0.4836
7820.00000 0.4821
7830.00000 0.4801
7840.00000 0.4802
7850.00000 0.4793
7860.00000 0.4783
7870.00000 0.4772
7880.00000 0.4758
7890.00000 0.4763
7900.00000 0.4761
7910.00000 0.4743
7920.00000 0.4727
7930.00000 0.4715
7940.00000 0.4707
7950.00000 0.4688
7960.00000 0.4674
7970.00000 0.4652
7980.00000 0.4619
7990.00000 0.469
8000.00000 0.4681
8010.00000 0.4646
8020.00000 0.4612
8030.00000 0.4588
8040.00000 0.4558
8050.00000 0.4524
8060.00000 0.4494
8070.00000 0.4471
8080.00000 0.4446
8090.00000 0.4423
8100.00000 0.4395
8110.00000 0.4377
8120.00000 0.4357
8130.00000 0.4334
8140.00000 0.4308
8150.00000 0.4288
8160.00000 0.4273
8170.00000 0.425
8180.00000 0.4219
8190.00000 0.4195
8200.00000 0.4156
8210.00000 0.4133
8220.00000 0.4101
8230.00000 0.4069
8240.00000 0.4028
8250.00000 0.4003
8260.00000 0.3979
8270.00000 0.3943
8280.00000 0.3911
8290.00000 0.3872
8300.00000 0.383
8310.00000 0.3795
8320.00000 0.3762
8330.00000 0.3725
8340.00000 0.3684
8350.00000 0.3646
8360.00000 0.3611
8370.00000 0.3587
8380.00000 0.3561
8390.00000 0.3539
8400.00000 0.352
8410.00000 0.3492
8420.00000 0.3473
8430.00000 0.3452
8440.00000 0.3434
8450.00000 0.341
8460.00000 0.3393
8470.00000 0.3377
8480.00000 0.3344
8490.00000 0.3329
8500.00000 0.3322
8510.00000 0.3307
8520.00000 0.3284
8530.00000 0.3272
8540.00000 0.3256
8550.00000 0.3236
8560.00000 0.3224
8570.00000 0.3211
8580.00000 0.3182
8590.00000 0.3181
8600.00000 0.3155
8610.00000 0.3127
8620.00000 0.3107
8630.00000 0.3087
8640.00000 0.3067
8650.00000 0.3046
8660.00000 0.3027
8670.00000 0.3009
8680.00000 0.2989
8690.00000 0.2968
8700.00000 0.2948
8710.00000 0.2925
8720.00000 0.2897
8730.00000 0.2865
8740.00000 0.283
8750.00000 0.2786
8760.00000 0.2736
8770.00000 0.2673
8780.00000 0.2605
8790.00000 0.2523
8800.00000 0.2434
8810.00000 0.2332
8820.00000 0.2222
8830.00000 0.2101
8840.00000 0.1972
8850.00000 0.1838
8860.00000 0.1695
8870.00000 0.1554
8880.00000 0.141
8890.00000 0.1262
8900.00000 0.1125
8910.00000 0.09869
8920.00000 0.08603
8930.00000 0.07401
8940.00000 0.06322
8950.00000 0.0534
8960.00000 0.04464
8970.00000 0.03715
8980.00000 0.03064
8990.00000 0.02485
9000.00000 0.02032
9010.00000 0.0166
9020.00000 0.01346
9030.00000 0.01097
9040.00000 0.008958
9050.00000 0.007281
9060.00000 0.005943
9070.00000 0.004877
9080.00000 0.003998
9090.00000 0.003305
9100.00000 0.002737
9110.00000 0.002321
9120.00000 0.001901
9130.00000 0.001598
9140.00000 0.001378
9150.00000 0.001169
9160.00000 0.001019
9170.00000 0.000858
9180.00000 0.000758
9190.00000 0.000663
9200.00000 0.000587
9210.00000 0.000543
9220.00000 0.000485
9230.00000 0.000437
9240.00000 0.000419
9250.00000 0.000375
9260.00000 0.000346
9270.00000 0.000313
9280.00000 0.000331
9290.00000 0.000309
9300.00000 0.000281
9310.00000 0.000265
9320.00000 0.00026
9330.00000 0.00026
9340.00000 0.000235
9350.00000 0.000221
9360.00000 0.000208
9370.00000 0.000197
9380.00000 0.000226
9390.00000 0.000201
9400.00000 0.000217
9410.00000 0.000225
9420.00000 0.000201
9430.00000 0.00018
9440.00000 0.000185
9450.00000 0.000163
9460.00000 0.000166
9470.00000 0.000155
9480.00000 0.000156
9490.00000 0.00014
9500.00000 0.000148
9510.00000 0.000148
9520.00000 0.00015
9530.00000 0.000148
9540.00000 0.000145
9550.00000 0.00014
9560.00000 0.000139
9570.00000 0.000134
9580.00000 0.000163
9590.00000 0.000134
9600.00000 0.000154
9610.00000 0.000131
9620.00000 0.000123
9630.00000 0.000134
9640.00000 0.000132
9650.00000 0.000138
9660.00000 0.000132
9670.00000 0.000125
9680.00000 0.000129
9690.00000 0.000117
9700.00000 0.000121
10670.00000 0.0
