# %ECSV 0.9
# ---
# datatype:
# - {name: wavelength, unit: Angstrom, datatype: float32}
# - {name: response, datatype: float32}
# meta: !!omap
# - {band_name: Cousins_R2}
# - {group_name: Johnson}
wavelength response
4944.60010 0.0
5494.00000 4e-05
5496.00000 4e-05
5498.00000 5e-05
5500.00000 6e-05
5502.00000 7e-05
5504.00000 7e-05
5506.00000 9e-05
5508.00000 0.0001
5510.00000 0.00012
5512.00000 0.00014
5514.00000 0.00016
5516.00000 0.00018
5518.00000 0.00021
5520.00000 0.00024
5522.00000 0.00028
5524.00000 0.00032
5526.00000 0.00036
5528.00000 0.00042
5530.00000 0.00049
5532.00000 0.00057
5534.00000 0.00065
5536.00000 0.00075
5538.00000 0.00086
5540.00000 0.00098
5542.00000 0.00113
5544.00000 0.0013
5546.00000 0.00149
5548.00000 0.00171
5550.00000 0.00195
5552.00000 0.00222
5554.00000 0.00252
5556.00000 0.00288
5558.00000 0.0033
5560.00000 0.00375
5562.00000 0.00424
5564.00000 0.0048
5566.00000 0.00541
5568.00000 0.00611
5570.00000 0.00688
5572.00000 0.00779
5574.00000 0.00875
5576.00000 0.00983
5578.00000 0.01099
5580.00000 0.01234
5582.00000 0.01378
5584.00000 0.0154
5586.00000 0.01712
5588.00000 0.01903
5590.00000 0.02107
5592.00000 0.0233
5594.00000 0.02575
5596.00000 0.02849
5598.00000 0.03134
5600.00000 0.0344
5602.00000 0.03779
5604.00000 0.04122
5606.00000 0.04505
5608.00000 0.04916
5610.00000 0.05357
5612.00000 0.05806
5614.00000 0.06286
5616.00000 0.06785
5618.00000 0.07315
5620.00000 0.07871
5622.00000 0.08477
5624.00000 0.09094
5626.00000 0.09727
5628.00000 0.10417
5630.00000 0.1109
5632.00000 0.11805
5634.00000 0.1255
5636.00000 0.13352
5638.00000 0.14106
5640.00000 0.14919
5642.00000 0.15708
5644.00000 0.16565
5646.00000 0.17441
5648.00000 0.18353
5650.00000 0.19241
5652.00000 0.20176
5654.00000 0.21134
5656.00000 0.22049
5658.00000 0.22975
5660.00000 0.23966
5662.00000 0.2496
5664.00000 0.25964
5666.00000 0.26934
5668.00000 0.27902
5670.00000 0.28894
5672.00000 0.29914
5674.00000 0.30942
5676.00000 0.31951
5678.00000 0.32946
5680.00000 0.33953
5682.00000 0.34956
5684.00000 0.35951
5686.00000 0.36942
5688.00000 0.37958
5690.00000 0.38916
5692.00000 0.39874
5694.00000 0.40828
5696.00000 0.41743
5698.00000 0.42699
5700.00000 0.43659
5702.00000 0.44543
5704.00000 0.45449
5706.00000 0.46376
5708.00000 0.47211
5710.00000 0.48059
5712.00000 0.48932
5714.00000 0.49805
5716.00000 0.50593
5718.00000 0.5141
5720.00000 0.52198
5722.00000 0.52975
5724.00000 0.53737
5726.00000 0.54514
5728.00000 0.55196
5730.00000 0.55946
5732.00000 0.56649
5734.00000 0.57312
5736.00000 0.57989
5738.00000 0.58635
5740.00000 0.59277
5742.00000 0.59881
5744.00000 0.6051
5746.00000 0.61076
5748.00000 0.6166
5750.00000 0.6221
5752.00000 0.62727
5754.00000 0.633
5756.00000 0.63831
5758.00000 0.6431
5760.00000 0.64772
5762.00000 0.65273
5764.00000 0.65747
5766.00000 0.66215
5768.00000 0.66634
5770.00000 0.67084
5772.00000 0.67461
5774.00000 0.67863
5776.00000 0.68246
5778.00000 0.68651
5780.00000 0.69005
5782.00000 0.69352
5784.00000 0.6971
5786.00000 0.70054
5788.00000 0.70359
5790.00000 0.70665
5792.00000 0.71026
5794.00000 0.71293
5796.00000 0.71608
5798.00000 0.71879
5800.00000 0.72148
5802.00000 0.72428
5804.00000 0.72665
5806.00000 0.72933
5808.00000 0.73174
5810.00000 0.73444
5812.00000 0.7367
5814.00000 0.73876
5816.00000 0.74103
5818.00000 0.74313
5820.00000 0.745
5822.00000 0.74705
5824.00000 0.74852
5826.00000 0.7505
5828.00000 0.7523
5830.00000 0.75404
5832.00000 0.75572
5834.00000 0.75702
5836.00000 0.75894
5838.00000 0.76039
5840.00000 0.76193
5842.00000 0.76262
5844.00000 0.76448
5846.00000 0.76583
5848.00000 0.76683
5850.00000 0.76805
5852.00000 0.76927
5854.00000 0.77015
5856.00000 0.77148
5858.00000 0.77235
5860.00000 0.77339
5862.00000 0.77447
5864.00000 0.77538
5866.00000 0.7763
5868.00000 0.77718
5870.00000 0.77785
5872.00000 0.77875
5874.00000 0.77912
5876.00000 0.78014
5878.00000 0.78077
5880.00000 0.78109
5882.00000 0.78214
5884.00000 0.78294
5886.00000 0.78323
5888.00000 0.78407
5890.00000 0.78437
5892.00000 0.78489
5894.00000 0.78561
5896.00000 0.78589
5898.00000 0.78624
5900.00000 0.78687
5902.00000 0.78699
5904.00000 0.78746
5906.00000 0.78797
5908.00000 0.78817
5910.00000 0.78833
5912.00000 0.78894
5914.00000 0.78926
5916.00000 0.78955
5918.00000 0.78957
5920.00000 0.78991
5922.00000 0.79028
5924.00000 0.79054
5926.00000 0.79054
5928.00000 0.79072
5930.00000 0.79085
5932.00000 0.79102
5934.00000 0.79151
5936.00000 0.79166
5938.00000 0.79139
5940.00000 0.79154
5942.00000 0.79148
5944.00000 0.79161
5946.00000 0.79177
5948.00000 0.79185
5950.00000 0.7918
5952.00000 0.79219
5954.00000 0.79201
5956.00000 0.79179
5958.00000 0.79202
5960.00000 0.79202
5962.00000 0.79212
5964.00000 0.79205
5966.00000 0.79185
5968.00000 0.79206
5970.00000 0.79174
5972.00000 0.79197
5974.00000 0.79147
5976.00000 0.79169
5978.00000 0.79141
5980.00000 0.79167
5982.00000 0.79147
5984.00000 0.79109
5986.00000 0.79099
5988.00000 0.79119
5990.00000 0.79077
5992.00000 0.79074
5994.00000 0.79046
5996.00000 0.79045
5998.00000 0.79058
6000.00000 0.79021
6002.00000 0.79004
6004.00000 0.78988
6006.00000 0.78988
6008.00000 0.78973
6010.00000 0.78947
6012.00000 0.78898
6014.00000 0.78868
6016.00000 0.78882
6018.00000 0.78824
6020.00000 0.7883
6022.00000 0.78816
6024.00000 0.78794
6026.00000 0.78753
6028.00000 0.78748
6030.00000 0.78707
6032.00000 0.78692
6034.00000 0.7866
6036.00000 0.78648
6038.00000 0.78624
6040.00000 0.78577
6042.00000 0.7857
6044.00000 0.7854
6046.00000 0.78494
6048.00000 0.78464
6050.00000 0.78446
6052.00000 0.78439
6054.00000 0.78413
6056.00000 0.78343
6058.00000 0.7834
6060.00000 0.783
6062.00000 0.78253
6064.00000 0.78251
6066.00000 0.78216
6068.00000 0.78181
6070.00000 0.78144
6072.00000 0.78111
6074.00000 0.78077
6076.00000 0.78038
6078.00000 0.78007
6080.00000 0.77961
6082.00000 0.77945
6084.00000 0.77896
6086.00000 0.77875
6088.00000 0.77837
6090.00000 0.77806
6092.00000 0.77769
6094.00000 0.77708
6096.00000 0.77683
6098.00000 0.77678
6100.00000 0.77643
6102.00000 0.776
6104.00000 0.77562
6106.00000 0.77522
6108.00000 0.77493
6110.00000 0.77455
6112.00000 0.77422
6114.00000 0.77362
6116.00000 0.7729
6118.00000 0.77282
6120.00000 0.77228
6122.00000 0.7719
6124.00000 0.77158
6126.00000 0.7713
6128.00000 0.77069
6130.00000 0.77054
6132.00000 0.77012
6134.00000 0.76941
6136.00000 0.7691
6138.00000 0.76891
6140.00000 0.76836
6142.00000 0.76785
6144.00000 0.76734
6146.00000 0.76705
6148.00000 0.76629
6150.00000 0.76602
6152.00000 0.7659
6154.00000 0.76499
6156.00000 0.76503
6158.00000 0.76421
6160.00000 0.76394
6162.00000 0.76336
6164.00000 0.76278
6166.00000 0.76191
6168.00000 0.76192
6170.00000 0.76147
6172.00000 0.76117
6174.00000 0.76068
6176.00000 0.76011
6178.00000 0.75977
6180.00000 0.75927
6182.00000 0.75864
6184.00000 0.75789
6186.00000 0.75777
6188.00000 0.75723
6190.00000 0.757
6192.00000 0.75616
6194.00000 0.75564
6196.00000 0.75528
6198.00000 0.75476
6200.00000 0.75454
6202.00000 0.75395
6204.00000 0.75351
6206.00000 0.75312
6208.00000 0.75202
6210.00000 0.75176
6212.00000 0.75144
6214.00000 0.7508
6216.00000 0.75048
6218.00000 0.75009
6220.00000 0.74948
6222.00000 0.74855
6224.00000 0.7481
6226.00000 0.7478
6228.00000 0.7473
6230.00000 0.74657
6232.00000 0.74614
6234.00000 0.74541
6236.00000 0.74511
6238.00000 0.74461
6240.00000 0.74381
6242.00000 0.74359
6244.00000 0.7431
6246.00000 0.74246
6248.00000 0.74178
6250.00000 0.74134
6252.00000 0.74074
6254.00000 0.73979
6256.00000 0.73959
6258.00000 0.73912
6260.00000 0.73856
6262.00000 0.73798
6264.00000 0.73758
6266.00000 0.7367
6268.00000 0.73643
6270.00000 0.73556
6272.00000 0.73501
6274.00000 0.73453
6276.00000 0.73398
6278.00000 0.73318
6280.00000 0.73269
6282.00000 0.7323
6284.00000 0.73175
6286.00000 0.73096
6288.00000 0.73043
6290.00000 0.72978
6292.00000 0.72947
6294.00000 0.72882
6296.00000 0.72833
6298.00000 0.72765
6300.00000 0.72691
6302.00000 0.72636
6304.00000 0.7259
6306.00000 0.72542
6308.00000 0.72485
6310.00000 0.72405
6312.00000 0.72337
6314.00000 0.72292
6316.00000 0.72218
6318.00000 0.72151
6320.00000 0.72116
6322.00000 0.72067
6324.00000 0.71994
6326.00000 0.71944
6328.00000 0.71862
6330.00000 0.71816
6332.00000 0.71752
6334.00000 0.71676
6336.00000 0.71617
6338.00000 0.71573
6340.00000 0.71513
6342.00000 0.71443
6344.00000 0.71375
6346.00000 0.71327
6348.00000 0.71265
6350.00000 0.71219
6352.00000 0.71145
6354.00000 0.71065
6356.00000 0.71007
6358.00000 0.70958
6360.00000 0.70879
6362.00000 0.70837
6364.00000 0.70759
6366.00000 0.70708
6368.00000 0.70634
6370.00000 0.70603
6372.00000 0.70504
6374.00000 0.70459
6376.00000 0.70407
6378.00000 0.70328
6380.00000 0.70264
6382.00000 0.70205
6384.00000 0.70163
6386.00000 0.7007
6388.00000 0.70003
6390.00000 0.69969
6392.00000 0.69881
6394.00000 0.69795
6396.00000 0.69752
6398.00000 0.69691
6400.00000 0.69631
6402.00000 0.69596
6404.00000 0.69499
6406.00000 0.69444
6408.00000 0.69374
6410.00000 0.69316
6412.00000 0.69262
6414.00000 0.69219
6416.00000 0.69127
6418.00000 0.69057
6420.00000 0.68987
6422.00000 0.68938
6424.00000 0.68853
6426.00000 0.68816
6428.00000 0.68724
6430.00000 0.68656
6432.00000 0.68606
6434.00000 0.68554
6436.00000 0.68453
6438.00000 0.68383
6440.00000 0.68343
6442.00000 0.68296
6444.00000 0.68193
6446.00000 0.68138
6448.00000 0.68063
6450.00000 0.68026
6452.00000 0.67931
6454.00000 0.67865
6456.00000 0.6781
6458.00000 0.67767
6460.00000 0.67693
6462.00000 0.67605
6464.00000 0.6755
6466.00000 0.67456
6468.00000 0.67402
6470.00000 0.6734
6472.00000 0.67277
6474.00000 0.67186
6476.00000 0.67128
6478.00000 0.67081
6480.00000 0.67004
6482.00000 0.66934
6484.00000 0.66861
6486.00000 0.66788
6488.00000 0.66715
6490.00000 0.6665
6492.00000 0.66579
6494.00000 0.66515
6496.00000 0.66445
6498.00000 0.66378
6500.00000 0.66311
6502.00000 0.6624
6504.00000 0.66168
6506.00000 0.66102
6508.00000 0.66013
6510.00000 0.6595
6512.00000 0.65897
6514.00000 0.65833
6516.00000 0.6577
6518.00000 0.65698
6520.00000 0.65643
6522.00000 0.65564
6524.00000 0.65483
6526.00000 0.65424
6528.00000 0.65351
6530.00000 0.65273
6532.00000 0.6519
6534.00000 0.65112
6536.00000 0.6506
6538.00000 0.64988
6540.00000 0.64912
6542.00000 0.6487
6544.00000 0.64817
6546.00000 0.64714
6548.00000 0.64651
6550.00000 0.64589
6552.00000 0.64516
6554.00000 0.64466
6556.00000 0.64389
6558.00000 0.64322
6560.00000 0.64225
6562.00000 0.6416
6564.00000 0.64108
6566.00000 0.64047
6568.00000 0.63941
6570.00000 0.63885
6572.00000 0.63817
6574.00000 0.63742
6576.00000 0.63665
6578.00000 0.63623
6580.00000 0.63572
6582.00000 0.63457
6584.00000 0.63391
6586.00000 0.63318
6588.00000 0.6325
6590.00000 0.63184
6592.00000 0.63097
6594.00000 0.63043
6596.00000 0.62983
6598.00000 0.6291
6600.00000 0.62826
6602.00000 0.62761
6604.00000 0.62671
6606.00000 0.62567
6608.00000 0.62524
6610.00000 0.62468
6612.00000 0.62406
6614.00000 0.62334
6616.00000 0.62244
6618.00000 0.62175
6620.00000 0.62124
6622.00000 0.62041
6624.00000 0.61963
6626.00000 0.61879
6628.00000 0.61836
6630.00000 0.61781
6632.00000 0.6168
6634.00000 0.61594
6636.00000 0.61546
6638.00000 0.61507
6640.00000 0.6141
6642.00000 0.61361
6644.00000 0.61257
6646.00000 0.61178
6648.00000 0.61102
6650.00000 0.61023
6652.00000 0.60963
6654.00000 0.60931
6656.00000 0.60845
6658.00000 0.60749
6660.00000 0.60681
6662.00000 0.60599
6664.00000 0.6051
6666.00000 0.60448
6668.00000 0.60411
6670.00000 0.60317
6672.00000 0.60238
6674.00000 0.60187
6676.00000 0.60128
6678.00000 0.60029
6680.00000 0.59963
6682.00000 0.59893
6684.00000 0.59804
6686.00000 0.5973
6688.00000 0.5966
6690.00000 0.59587
6692.00000 0.59506
6694.00000 0.59418
6696.00000 0.59369
6698.00000 0.59276
6700.00000 0.59221
6702.00000 0.5911
6704.00000 0.59043
6706.00000 0.58994
6708.00000 0.58914
6710.00000 0.58849
6712.00000 0.58779
6714.00000 0.58705
6716.00000 0.58615
6718.00000 0.58527
6720.00000 0.58451
6722.00000 0.5837
6724.00000 0.58311
6726.00000 0.58251
6728.00000 0.58175
6730.00000 0.58087
6732.00000 0.58004
6734.00000 0.57939
6736.00000 0.57858
6738.00000 0.57799
6740.00000 0.57715
6742.00000 0.57642
6744.00000 0.57553
6746.00000 0.57466
6748.00000 0.574
6750.00000 0.57324
6752.00000 0.57269
6754.00000 0.57159
6756.00000 0.57072
6758.00000 0.57016
6760.00000 0.56931
6762.00000 0.56844
6764.00000 0.56776
6766.00000 0.56662
6768.00000 0.56619
6770.00000 0.56539
6772.00000 0.56439
6774.00000 0.56347
6776.00000 0.56295
6778.00000 0.56194
6780.00000 0.56098
6782.00000 0.56012
6784.00000 0.55922
6786.00000 0.55875
6788.00000 0.55783
6790.00000 0.55685
6792.00000 0.55611
6794.00000 0.55501
6796.00000 0.55446
6798.00000 0.55356
6800.00000 0.55263
6802.00000 0.55191
6804.00000 0.55103
6806.00000 0.5502
6808.00000 0.54923
6810.00000 0.54857
6812.00000 0.54763
6814.00000 0.54685
6816.00000 0.5459
6818.00000 0.54494
6820.00000 0.54408
6822.00000 0.5431
6824.00000 0.54255
6826.00000 0.54159
6828.00000 0.54048
6830.00000 0.54002
6832.00000 0.53903
6834.00000 0.53799
6836.00000 0.53724
6838.00000 0.53641
6840.00000 0.53567
6842.00000 0.53488
6844.00000 0.5337
6846.00000 0.53293
6848.00000 0.53236
6850.00000 0.53137
6852.00000 0.53026
6854.00000 0.5295
6856.00000 0.5286
6858.00000 0.52759
6860.00000 0.52718
6862.00000 0.52579
6864.00000 0.52517
6866.00000 0.52446
6868.00000 0.52361
6870.00000 0.52273
6872.00000 0.52175
6874.00000 0.52107
6876.00000 0.51997
6878.00000 0.51931
6880.00000 0.51822
6882.00000 0.51779
6884.00000 0.51672
6886.00000 0.51568
6888.00000 0.51485
6890.00000 0.51394
6892.00000 0.51296
6894.00000 0.51229
6896.00000 0.51149
6898.00000 0.51051
6900.00000 0.50958
6902.00000 0.50889
6904.00000 0.50757
6906.00000 0.50698
6908.00000 0.50606
6910.00000 0.50495
6912.00000 0.50408
6914.00000 0.50377
6916.00000 0.5026
6918.00000 0.5018
6920.00000 0.50053
6922.00000 0.49958
6924.00000 0.49906
6926.00000 0.49816
6928.00000 0.49729
6930.00000 0.49626
6932.00000 0.49587
6934.00000 0.49446
6936.00000 0.49385
6938.00000 0.49278
6940.00000 0.49188
6942.00000 0.49092
6944.00000 0.49014
6946.00000 0.48963
6948.00000 0.48835
6950.00000 0.48759
6952.00000 0.48674
6954.00000 0.48588
6956.00000 0.48487
6958.00000 0.48387
6960.00000 0.48312
6962.00000 0.4824
6964.00000 0.48161
6966.00000 0.48063
6968.00000 0.47987
6970.00000 0.47877
6972.00000 0.47794
6974.00000 0.47678
6976.00000 0.47608
6978.00000 0.47528
6980.00000 0.47446
6982.00000 0.47323
6984.00000 0.4726
6986.00000 0.47163
6988.00000 0.47069
6990.00000 0.47008
6992.00000 0.46907
6994.00000 0.46829
6996.00000 0.46712
6998.00000 0.46625
7000.00000 0.46529
7002.00000 0.46469
7004.00000 0.46389
7006.00000 0.46261
7008.00000 0.46195
7010.00000 0.46103
7012.00000 0.46045
7014.00000 0.45937
7016.00000 0.45842
7018.00000 0.45768
7020.00000 0.45666
7022.00000 0.45573
7024.00000 0.4548
7026.00000 0.45413
7028.00000 0.45325
7030.00000 0.45237
7032.00000 0.45142
7034.00000 0.45063
7036.00000 0.44937
7038.00000 0.44874
7040.00000 0.44758
7042.00000 0.44702
7044.00000 0.44601
7046.00000 0.44538
7048.00000 0.4443
7050.00000 0.44335
7052.00000 0.44251
7054.00000 0.44193
7056.00000 0.44047
7058.00000 0.44009
7060.00000 0.43907
7062.00000 0.43819
7064.00000 0.43746
7066.00000 0.43648
7068.00000 0.43542
7070.00000 0.43463
7072.00000 0.43414
7074.00000 0.43311
7076.00000 0.43265
7078.00000 0.43132
7080.00000 0.43036
7082.00000 0.42972
7084.00000 0.42865
7086.00000 0.42767
7088.00000 0.42679
7090.00000 0.42613
7092.00000 0.42512
7094.00000 0.42396
7096.00000 0.42343
7098.00000 0.42266
7100.00000 0.42181
7102.00000 0.42116
7104.00000 0.4203
7106.00000 0.41916
7108.00000 0.41843
7110.00000 0.41746
7112.00000 0.4167
7114.00000 0.41568
7116.00000 0.41458
7118.00000 0.41402
7120.00000 0.41315
7122.00000 0.41247
7124.00000 0.41195
7126.00000 0.41066
7128.00000 0.40976
7130.00000 0.40873
7132.00000 0.4078
7134.00000 0.40725
7136.00000 0.40607
7138.00000 0.40577
7140.00000 0.40449
7142.00000 0.4032
7144.00000 0.4026
7146.00000 0.40181
7148.00000 0.40083
7150.00000 0.40025
7152.00000 0.39955
7154.00000 0.39845
7156.00000 0.39798
7158.00000 0.39651
7160.00000 0.3961
7162.00000 0.39523
7164.00000 0.39418
7166.00000 0.39369
7168.00000 0.39247
7170.00000 0.39171
7172.00000 0.39078
7174.00000 0.39051
7176.00000 0.38901
7178.00000 0.38805
7180.00000 0.38744
7182.00000 0.38663
7184.00000 0.38566
7186.00000 0.38497
7188.00000 0.38423
7190.00000 0.38328
7192.00000 0.38225
7194.00000 0.38178
7196.00000 0.38071
7198.00000 0.37992
7200.00000 0.3793
7202.00000 0.37834
7204.00000 0.37736
7206.00000 0.37649
7208.00000 0.37546
7210.00000 0.37489
7212.00000 0.37438
7214.00000 0.37311
7216.00000 0.37241
7218.00000 0.37128
7220.00000 0.37077
7222.00000 0.36995
7224.00000 0.36905
7226.00000 0.36816
7228.00000 0.36735
7230.00000 0.36654
7232.00000 0.36567
7234.00000 0.36496
7236.00000 0.36432
7238.00000 0.36296
7240.00000 0.36209
7242.00000 0.36136
7244.00000 0.36049
7246.00000 0.35976
7248.00000 0.35895
7250.00000 0.35805
7252.00000 0.35748
7254.00000 0.35654
7256.00000 0.35589
7258.00000 0.35507
7260.00000 0.35446
7262.00000 0.35342
7264.00000 0.35275
7266.00000 0.35172
7268.00000 0.35088
7270.00000 0.3502
7272.00000 0.34948
7274.00000 0.34864
7276.00000 0.34758
7278.00000 0.34684
7280.00000 0.34602
7282.00000 0.34511
7284.00000 0.34436
7286.00000 0.3437
7288.00000 0.34289
7290.00000 0.34204
7292.00000 0.34094
7294.00000 0.34037
7296.00000 0.33947
7298.00000 0.33869
7300.00000 0.33808
7302.00000 0.33732
7304.00000 0.33638
7306.00000 0.33546
7308.00000 0.33481
7310.00000 0.33403
7312.00000 0.33303
7314.00000 0.3323
7316.00000 0.3318
7318.00000 0.33058
7320.00000 0.32985
7322.00000 0.32926
7324.00000 0.32828
7326.00000 0.32743
7328.00000 0.32666
7330.00000 0.32575
7332.00000 0.32502
7334.00000 0.32442
7336.00000 0.32292
7338.00000 0.32263
7340.00000 0.32182
7342.00000 0.32137
7344.00000 0.32006
7346.00000 0.3197
7348.00000 0.31867
7350.00000 0.31796
7352.00000 0.3169
7354.00000 0.31627
7356.00000 0.31555
7358.00000 0.3147
7360.00000 0.31405
7362.00000 0.31327
7364.00000 0.3126
7366.00000 0.31155
7368.00000 0.31067
7370.00000 0.30994
7372.00000 0.30955
7374.00000 0.30851
7376.00000 0.30784
7378.00000 0.30698
7380.00000 0.3061
7382.00000 0.30543
7384.00000 0.30467
7386.00000 0.30379
7388.00000 0.30298
7390.00000 0.30264
7392.00000 0.30152
7394.00000 0.3007
7396.00000 0.29985
7398.00000 0.29888
7400.00000 0.29854
7402.00000 0.2975
7404.00000 0.29695
7406.00000 0.29609
7408.00000 0.29529
7410.00000 0.29447
7412.00000 0.2934
7414.00000 0.29298
7416.00000 0.29217
7418.00000 0.29144
7420.00000 0.29055
7422.00000 0.28995
7424.00000 0.28912
7426.00000 0.28847
7428.00000 0.28743
7430.00000 0.28676
7432.00000 0.28615
7434.00000 0.28506
7436.00000 0.28452
7438.00000 0.28366
7440.00000 0.28323
7442.00000 0.28229
7444.00000 0.28148
7446.00000 0.28073
7448.00000 0.28008
7450.00000 0.27909
7452.00000 0.27838
7454.00000 0.27758
7456.00000 0.27709
7458.00000 0.27614
7460.00000 0.2753
7462.00000 0.2744
7464.00000 0.27406
7466.00000 0.27329
7468.00000 0.27231
7470.00000 0.27156
7472.00000 0.27053
7474.00000 0.2698
7476.00000 0.26921
7478.00000 0.26858
7480.00000 0.26784
7482.00000 0.26678
7484.00000 0.26615
7486.00000 0.26562
7488.00000 0.2652
7490.00000 0.26393
7492.00000 0.26348
7494.00000 0.26245
7496.00000 0.26178
7498.00000 0.26119
7500.00000 0.26074
7502.00000 0.25974
7504.00000 0.25901
7506.00000 0.25802
7508.00000 0.25775
7510.00000 0.25703
7512.00000 0.25635
7514.00000 0.25573
7516.00000 0.25453
7518.00000 0.254
7520.00000 0.25341
7522.00000 0.25211
7524.00000 0.252
7526.00000 0.25118
7528.00000 0.2504
7530.00000 0.24924
7532.00000 0.24889
7534.00000 0.24831
7536.00000 0.24754
7538.00000 0.24659
7540.00000 0.24611
7542.00000 0.2452
7544.00000 0.24447
7546.00000 0.24369
7548.00000 0.24264
7550.00000 0.24259
7552.00000 0.24169
7554.00000 0.24093
7556.00000 0.24009
7558.00000 0.23977
7560.00000 0.2388
7562.00000 0.23822
7564.00000 0.23761
7566.00000 0.23702
7568.00000 0.23617
7570.00000 0.23566
7572.00000 0.23443
7574.00000 0.23389
7576.00000 0.23302
7578.00000 0.23257
7580.00000 0.23173
7582.00000 0.23108
7584.00000 0.23039
7586.00000 0.22958
7588.00000 0.22902
7590.00000 0.22828
7592.00000 0.22776
7594.00000 0.22708
7596.00000 0.22637
7598.00000 0.22566
7600.00000 0.22505
7602.00000 0.22416
7604.00000 0.22349
7606.00000 0.22284
7608.00000 0.22262
7610.00000 0.22168
7612.00000 0.22131
7614.00000 0.21991
7616.00000 0.21972
7618.00000 0.21914
7620.00000 0.21831
7622.00000 0.21737
7624.00000 0.2167
7626.00000 0.21629
7628.00000 0.21545
7630.00000 0.21499
7632.00000 0.21399
7634.00000 0.21335
7636.00000 0.21319
7638.00000 0.21227
7640.00000 0.2116
7642.00000 0.21069
7644.00000 0.21045
7646.00000 0.20955
7648.00000 0.209
7650.00000 0.20856
7652.00000 0.20727
7654.00000 0.20675
7656.00000 0.20646
7658.00000 0.20569
7660.00000 0.20499
7662.00000 0.2041
7664.00000 0.20365
7666.00000 0.20295
7668.00000 0.20247
7670.00000 0.20155
7672.00000 0.20084
7674.00000 0.20029
7676.00000 0.19955
7678.00000 0.19914
7680.00000 0.19848
7682.00000 0.19797
7684.00000 0.19727
7686.00000 0.19656
7688.00000 0.19584
7690.00000 0.19544
7692.00000 0.19453
7694.00000 0.19398
7696.00000 0.19308
7698.00000 0.19276
7700.00000 0.19244
7702.00000 0.19153
7704.00000 0.19084
7706.00000 0.19039
7708.00000 0.18951
7710.00000 0.18901
7712.00000 0.18849
7714.00000 0.18785
7716.00000 0.18707
7718.00000 0.18663
7720.00000 0.18564
7722.00000 0.18542
7724.00000 0.18487
7726.00000 0.18376
7728.00000 0.18354
7730.00000 0.18286
7732.00000 0.18216
7734.00000 0.1817
7736.00000 0.1811
7738.00000 0.18056
7740.00000 0.17964
7742.00000 0.17949
7744.00000 0.17851
7746.00000 0.17818
7748.00000 0.17766
7750.00000 0.17673
7752.00000 0.17636
7754.00000 0.17554
7756.00000 0.17527
7758.00000 0.1743
7760.00000 0.17422
7762.00000 0.17331
7764.00000 0.17302
7766.00000 0.17209
7768.00000 0.17156
7770.00000 0.17107
7772.00000 0.17043
7774.00000 0.17
7776.00000 0.16945
7778.00000 0.1686
7780.00000 0.16841
7782.00000 0.16748
7784.00000 0.16702
7786.00000 0.16634
7788.00000 0.16587
7790.00000 0.1654
7792.00000 0.1644
7794.00000 0.16412
7796.00000 0.16362
7798.00000 0.16289
7800.00000 0.16257
7802.00000 0.16173
7804.00000 0.16108
7806.00000 0.16024
7808.00000 0.16047
7810.00000 0.15961
7812.00000 0.15894
7814.00000 0.15844
7816.00000 0.15807
7818.00000 0.15757
7820.00000 0.15707
7822.00000 0.15622
7824.00000 0.15588
7826.00000 0.15528
7828.00000 0.15481
7830.00000 0.15422
7832.00000 0.15386
7834.00000 0.15306
7836.00000 0.15247
7838.00000 0.15162
7840.00000 0.1514
7842.00000 0.1509
7844.00000 0.15039
7846.00000 0.14983
7848.00000 0.14941
7850.00000 0.14883
7852.00000 0.14838
7854.00000 0.14783
7856.00000 0.14738
7858.00000 0.14655
7860.00000 0.14651
7862.00000 0.14569
7864.00000 0.14541
7866.00000 0.14463
7868.00000 0.14408
7870.00000 0.14346
7872.00000 0.14313
7874.00000 0.14288
7876.00000 0.14193
7878.00000 0.14138
7880.00000 0.14077
7882.00000 0.1407
7884.00000 0.1399
7886.00000 0.13982
7888.00000 0.13911
7890.00000 0.13858
7892.00000 0.13822
7894.00000 0.13724
7896.00000 0.13711
7898.00000 0.13629
7900.00000 0.13596
7902.00000 0.13562
7904.00000 0.13478
7906.00000 0.13465
7908.00000 0.13369
7910.00000 0.13363
7912.00000 0.13285
7914.00000 0.13301
7916.00000 0.13215
7918.00000 0.13144
7920.00000 0.13123
7922.00000 0.13078
7924.00000 0.13051
7926.00000 0.12983
7928.00000 0.12924
7930.00000 0.12877
7932.00000 0.12808
7934.00000 0.12816
7936.00000 0.12723
7938.00000 0.12683
7940.00000 0.12666
7942.00000 0.12555
7944.00000 0.12575
7946.00000 0.12497
7948.00000 0.12468
7950.00000 0.12392
7952.00000 0.1238
7954.00000 0.12327
7956.00000 0.12286
7958.00000 0.12245
7960.00000 0.12172
7962.00000 0.12146
7964.00000 0.12099
7966.00000 0.12037
7968.00000 0.12019
7970.00000 0.11979
7972.00000 0.11938
7974.00000 0.11875
7976.00000 0.11832
7978.00000 0.11778
7980.00000 0.11733
7982.00000 0.117
7984.00000 0.11666
7986.00000 0.11605
7988.00000 0.11593
7990.00000 0.115
7992.00000 0.11502
7994.00000 0.1141
7996.00000 0.114
7998.00000 0.11343
8000.00000 0.11351
8002.00000 0.11308
8004.00000 0.11271
8006.00000 0.1122
8008.00000 0.11184
8010.00000 0.11141
8012.00000 0.11105
8014.00000 0.11057
8016.00000 0.11014
8018.00000 0.10974
8020.00000 0.10934
8022.00000 0.10892
8024.00000 0.10845
8026.00000 0.10808
8028.00000 0.10766
8030.00000 0.10734
8032.00000 0.10685
8034.00000 0.10646
8036.00000 0.10608
8038.00000 0.1057
8040.00000 0.10523
8042.00000 0.10485
8044.00000 0.10444
8046.00000 0.10408
8048.00000 0.10365
8050.00000 0.10322
8052.00000 0.10284
8054.00000 0.10241
8056.00000 0.10206
8058.00000 0.10163
8060.00000 0.10127
8062.00000 0.10086
8064.00000 0.10053
8066.00000 0.10012
8068.00000 0.09973
8070.00000 0.09932
8072.00000 0.09896
8074.00000 0.09855
8076.00000 0.09814
8078.00000 0.09778
8080.00000 0.09743
8082.00000 0.09706
8084.00000 0.09667
8086.00000 0.09633
8088.00000 0.09592
8090.00000 0.09556
8092.00000 0.09522
8094.00000 0.09485
8096.00000 0.09447
8098.00000 0.09411
8100.00000 0.09375
8102.00000 0.09336
8104.00000 0.09298
8106.00000 0.09264
8108.00000 0.09225
8110.00000 0.09184
8112.00000 0.09154
8114.00000 0.09117
8116.00000 0.09085
8118.00000 0.09045
8120.00000 0.09012
8122.00000 0.08974
8124.00000 0.08938
8126.00000 0.08903
8128.00000 0.08865
8130.00000 0.08829
8132.00000 0.08796
8134.00000 0.08763
8136.00000 0.08726
8138.00000 0.08693
8140.00000 0.08656
8142.00000 0.08625
8144.00000 0.08585
8146.00000 0.08554
8148.00000 0.08515
8150.00000 0.0849
8152.00000 0.08449
8154.00000 0.08412
8156.00000 0.08381
8158.00000 0.08348
8160.00000 0.08312
8162.00000 0.08272
8164.00000 0.08245
8166.00000 0.08211
8168.00000 0.08186
8170.00000 0.08145
8172.00000 0.08115
8174.00000 0.0808
8176.00000 0.08051
8178.00000 0.08012
8180.00000 0.07982
8182.00000 0.07947
8184.00000 0.07918
8186.00000 0.07883
8188.00000 0.07848
8190.00000 0.0782
8192.00000 0.07787
8194.00000 0.07756
8196.00000 0.07722
8198.00000 0.07692
8200.00000 0.07661
8202.00000 0.07629
8204.00000 0.07592
8206.00000 0.07561
8208.00000 0.07532
8210.00000 0.07501
8212.00000 0.07466
8214.00000 0.07435
8216.00000 0.07403
8218.00000 0.07375
8220.00000 0.07347
8222.00000 0.07314
8224.00000 0.07287
8226.00000 0.07256
8228.00000 0.07228
8230.00000 0.07195
8232.00000 0.07166
8234.00000 0.07138
8236.00000 0.07109
8238.00000 0.07079
8240.00000 0.07044
8242.00000 0.07019
8244.00000 0.06991
8246.00000 0.06962
8248.00000 0.06927
8250.00000 0.06906
8252.00000 0.06874
8254.00000 0.06849
8256.00000 0.06819
8258.00000 0.06788
8260.00000 0.06759
8262.00000 0.06735
8264.00000 0.06704
8266.00000 0.06675
8268.00000 0.06648
8270.00000 0.06621
8272.00000 0.06595
8274.00000 0.06564
8276.00000 0.06541
8278.00000 0.06514
8280.00000 0.06485
8282.00000 0.06454
8284.00000 0.06429
8286.00000 0.06403
8288.00000 0.06378
8290.00000 0.0635
8292.00000 0.06323
8294.00000 0.06295
8296.00000 0.06265
8298.00000 0.06242
8300.00000 0.06213
8302.00000 0.06186
8304.00000 0.06161
8306.00000 0.06142
8308.00000 0.06112
8310.00000 0.06091
8312.00000 0.06059
8314.00000 0.06036
8316.00000 0.0601
8318.00000 0.05985
8320.00000 0.05956
8322.00000 0.05933
8324.00000 0.0591
8326.00000 0.0588
8328.00000 0.05856
8330.00000 0.0583
8332.00000 0.05811
8334.00000 0.05784
8336.00000 0.05757
8338.00000 0.05734
8340.00000 0.05711
8342.00000 0.05687
8344.00000 0.05662
8346.00000 0.05638
8348.00000 0.05616
8350.00000 0.05589
8352.00000 0.05564
8354.00000 0.05539
8356.00000 0.05518
8358.00000 0.05495
8360.00000 0.05473
8362.00000 0.05447
8364.00000 0.05424
8366.00000 0.05403
8368.00000 0.05379
8370.00000 0.05352
8372.00000 0.05331
8374.00000 0.05307
8376.00000 0.05286
8378.00000 0.05261
8380.00000 0.05237
8382.00000 0.05214
8384.00000 0.05195
8386.00000 0.05169
8388.00000 0.05148
8390.00000 0.05126
8392.00000 0.05107
8394.00000 0.05084
8396.00000 0.05062
8398.00000 0.05039
8400.00000 0.05015
8402.00000 0.04992
8404.00000 0.04976
8406.00000 0.04949
8408.00000 0.0493
8410.00000 0.04907
8412.00000 0.04884
8414.00000 0.04868
8416.00000 0.04845
8418.00000 0.04825
8420.00000 0.048
8422.00000 0.04784
8424.00000 0.04759
8426.00000 0.04743
8428.00000 0.04721
8430.00000 0.04696
8432.00000 0.04677
8434.00000 0.04655
8436.00000 0.04637
8438.00000 0.04617
8440.00000 0.04601
8442.00000 0.04576
8444.00000 0.04556
8446.00000 0.04537
8448.00000 0.04517
8450.00000 0.04496
8452.00000 0.04478
8454.00000 0.04456
8456.00000 0.04433
8458.00000 0.04419
8460.00000 0.04398
8462.00000 0.04378
8464.00000 0.04357
8466.00000 0.04342
8468.00000 0.04321
8470.00000 0.04305
8472.00000 0.04282
8474.00000 0.04268
8476.00000 0.04247
8478.00000 0.0423
8480.00000 0.0421
8482.00000 0.04192
8484.00000 0.04172
8486.00000 0.04153
8488.00000 0.04134
8490.00000 0.04115
8492.00000 0.04095
8494.00000 0.0408
8496.00000 0.04064
8498.00000 0.04045
8500.00000 0.04027
8502.00000 0.04009
8504.00000 0.0399
8506.00000 0.03973
8508.00000 0.03955
8510.00000 0.03937
8512.00000 0.03922
8514.00000 0.03899
8516.00000 0.03882
8518.00000 0.03868
8520.00000 0.03847
8522.00000 0.03831
8524.00000 0.0381
8526.00000 0.03796
8528.00000 0.03776
8530.00000 0.03766
8532.00000 0.03745
8534.00000 0.03731
8536.00000 0.03709
8538.00000 0.03695
8540.00000 0.0368
8542.00000 0.03661
8544.00000 0.03643
8546.00000 0.03629
8548.00000 0.03616
8550.00000 0.03597
8552.00000 0.03578
8554.00000 0.03565
8556.00000 0.0355
8558.00000 0.03532
8560.00000 0.03521
8562.00000 0.035
8564.00000 0.03486
8566.00000 0.03472
8568.00000 0.03454
8570.00000 0.03438
8572.00000 0.03425
8574.00000 0.0341
8576.00000 0.03391
8578.00000 0.03379
8580.00000 0.0336
8582.00000 0.03353
8584.00000 0.03332
8586.00000 0.03318
8588.00000 0.03305
8590.00000 0.03287
8592.00000 0.03274
8594.00000 0.03256
8596.00000 0.03244
8598.00000 0.03228
8600.00000 0.03215
8602.00000 0.032
8604.00000 0.03187
8606.00000 0.03171
8608.00000 0.0316
8610.00000 0.03142
8612.00000 0.03127
8614.00000 0.03114
8616.00000 0.031
8618.00000 0.03088
8620.00000 0.03072
8622.00000 0.03057
8624.00000 0.03042
8626.00000 0.03031
8628.00000 0.03016
8630.00000 0.03003
8632.00000 0.0299
8634.00000 0.02977
8636.00000 0.0296
8638.00000 0.02949
8640.00000 0.02934
8642.00000 0.02924
8644.00000 0.02912
8646.00000 0.02896
8648.00000 0.02885
8650.00000 0.02874
8652.00000 0.0286
8654.00000 0.02845
8656.00000 0.02834
8658.00000 0.02822
8660.00000 0.02811
8662.00000 0.02797
8664.00000 0.02782
8666.00000 0.02771
8668.00000 0.02761
8670.00000 0.02749
8672.00000 0.02738
8674.00000 0.02726
8676.00000 0.02711
8678.00000 0.027
8680.00000 0.02684
8682.00000 0.02674
8684.00000 0.02658
8686.00000 0.02654
8688.00000 0.02638
8690.00000 0.02626
8692.00000 0.02614
8694.00000 0.02603
8696.00000 0.0259
8698.00000 0.02582
8700.00000 0.02567
8702.00000 0.02558
8704.00000 0.02543
8706.00000 0.02535
8708.00000 0.02525
8710.00000 0.02512
8712.00000 0.02501
8714.00000 0.02491
8716.00000 0.02475
8718.00000 0.02467
8720.00000 0.02456
8722.00000 0.02445
8724.00000 0.02433
8726.00000 0.02424
8728.00000 0.02412
8730.00000 0.024
8732.00000 0.02388
8734.00000 0.02379
8736.00000 0.02368
8738.00000 0.02357
8740.00000 0.02349
8742.00000 0.02337
8744.00000 0.02329
8746.00000 0.02316
8748.00000 0.02301
8750.00000 0.02292
8752.00000 0.02284
8754.00000 0.02273
8756.00000 0.02266
8758.00000 0.02254
8760.00000 0.02241
8762.00000 0.02231
8764.00000 0.02224
8766.00000 0.02212
8768.00000 0.022
8770.00000 0.02194
8772.00000 0.02182
8774.00000 0.02171
8776.00000 0.02163
8778.00000 0.02151
8780.00000 0.02143
8782.00000 0.02138
8784.00000 0.02123
8786.00000 0.02115
8788.00000 0.02106
8790.00000 0.02095
8792.00000 0.02088
8794.00000 0.02078
8796.00000 0.02068
8798.00000 0.02058
8800.00000 0.02046
8802.00000 0.02038
8804.00000 0.0203
8806.00000 0.02022
8808.00000 0.0201
8810.00000 0.02001
8812.00000 0.01992
8814.00000 0.01986
8816.00000 0.01975
8818.00000 0.01963
8820.00000 0.01955
8822.00000 0.01949
8824.00000 0.0194
8826.00000 0.0193
8828.00000 0.0192
8830.00000 0.01912
8832.00000 0.01904
8834.00000 0.01898
8836.00000 0.01886
8838.00000 0.01877
8840.00000 0.0187
8842.00000 0.01863
8844.00000 0.01853
8846.00000 0.01846
8848.00000 0.01834
8850.00000 0.01831
8852.00000 0.01823
8854.00000 0.0181
8856.00000 0.01806
8858.00000 0.01794
8860.00000 0.01786
8862.00000 0.01779
8864.00000 0.01772
8866.00000 0.01761
8868.00000 0.01754
8870.00000 0.01744
8872.00000 0.01739
8874.00000 0.01732
8876.00000 0.01726
8878.00000 0.01716
8880.00000 0.01709
8882.00000 0.017
8884.00000 0.01692
8886.00000 0.01684
8888.00000 0.01677
8890.00000 0.01669
8892.00000 0.01661
8894.00000 0.01657
8896.00000 0.01647
8898.00000 0.01639
8900.00000 0.01632
8902.00000 0.01627
8904.00000 0.01615
8906.00000 0.01607
8908.00000 0.01602
8910.00000 0.01596
8912.00000 0.01587
8914.00000 0.0158
8916.00000 0.01573
8918.00000 0.01566
8920.00000 0.01558
8922.00000 0.01554
8924.00000 0.01545
8926.00000 0.01539
8928.00000 0.01533
8930.00000 0.01523
8932.00000 0.01517
8934.00000 0.01513
8936.00000 0.01504
8938.00000 0.01498
8940.00000 0.01492
8942.00000 0.01485
8944.00000 0.0148
8946.00000 0.01472
8948.00000 0.01463
8950.00000 0.01458
8952.00000 0.01451
8954.00000 0.01446
8956.00000 0.01437
8958.00000 0.01431
8960.00000 0.01425
8962.00000 0.01418
8964.00000 0.01413
8966.00000 0.01406
8968.00000 0.01399
8970.00000 0.01394
8972.00000 0.01388
8974.00000 0.0138
8976.00000 0.01375
8978.00000 0.01368
8980.00000 0.01362
8982.00000 0.01354
8984.00000 0.01347
8986.00000 0.01344
8988.00000 0.01342
8990.00000 0.01334
8992.00000 0.01327
8994.00000 0.01318
8996.00000 0.01312
8998.00000 0.01305
9000.00000 0.01301
9002.00000 0.01297
9004.00000 0.01287
9006.00000 0.01287
9008.00000 0.01276
9010.00000 0.01271
9012.00000 0.01265
9014.00000 0.0126
9016.00000 0.01254
9018.00000 0.01247
9020.00000 0.01243
9022.00000 0.01236
9024.00000 0.0123
9026.00000 0.01226
9028.00000 0.0122
9030.00000 0.01214
9032.00000 0.01211
9034.00000 0.01202
9036.00000 0.012
9038.00000 0.01192
9040.00000 0.01191
9042.00000 0.01181
9044.00000 0.01176
9046.00000 0.01172
9048.00000 0.01167
9050.00000 0.0116
9052.00000 0.01153
9054.00000 0.0115
9056.00000 0.01146
9058.00000 0.0114
9060.00000 0.01132
9062.00000 0.0113
9064.00000 0.01124
9066.00000 0.0112
9068.00000 0.01116
9070.00000 0.01111
9072.00000 0.01103
9074.00000 0.01099
9076.00000 0.01096
9078.00000 0.01091
9080.00000 0.01086
9082.00000 0.0108
9084.00000 0.01076
9086.00000 0.01073
9088.00000 0.01067
9090.00000 0.01062
9092.00000 0.01056
9094.00000 0.0105
9096.00000 0.01049
9098.00000 0.01042
9100.00000 0.01037
9102.00000 0.01031
9104.00000 0.01025
9106.00000 0.01024
9108.00000 0.01017
9110.00000 0.01013
9112.00000 0.01006
9114.00000 0.01002
9116.00000 0.01001
9118.00000 0.00996
9120.00000 0.00992
9122.00000 0.00988
9124.00000 0.00982
9126.00000 0.00979
9128.00000 0.00975
9130.00000 0.00968
9132.00000 0.00963
9134.00000 0.00962
9136.00000 0.00957
9138.00000 0.00952
9140.00000 0.00946
9142.00000 0.00944
9144.00000 0.0094
9146.00000 0.00937
9148.00000 0.00932
9150.00000 0.00929
9152.00000 0.00925
9154.00000 0.0092
9156.00000 0.00916
9158.00000 0.0091
9160.00000 0.00908
9162.00000 0.00901
9164.00000 0.009
9166.00000 0.00895
9168.00000 0.0089
9170.00000 0.00883
9172.00000 0.00883
9174.00000 0.00879
9176.00000 0.00874
9178.00000 0.00871
9180.00000 0.00866
9182.00000 0.00864
9184.00000 0.0086
9186.00000 0.00859
9188.00000 0.00851
9190.00000 0.00845
9192.00000 0.00843
9194.00000 0.00841
9196.00000 0.00835
9198.00000 0.00833
9200.00000 0.00829
9202.00000 0.00827
9204.00000 0.00823
9206.00000 0.00818
9208.00000 0.00816
9210.00000 0.00811
9212.00000 0.0081
9214.00000 0.00804
9216.00000 0.00802
9218.00000 0.00796
9220.00000 0.00794
9222.00000 0.0079
9224.00000 0.00789
9226.00000 0.00784
9228.00000 0.00781
9230.00000 0.00774
9232.00000 0.00772
9234.00000 0.0077
9236.00000 0.00766
9238.00000 0.00762
9240.00000 0.00758
9242.00000 0.00755
9244.00000 0.00752
9246.00000 0.00749
9248.00000 0.00745
9250.00000 0.00742
9252.00000 0.0074
9254.00000 0.00735
9256.00000 0.00735
9258.00000 0.00731
9260.00000 0.00726
9262.00000 0.00724
9264.00000 0.00719
9266.00000 0.00719
9268.00000 0.00711
9270.00000 0.00712
9272.00000 0.00703
9274.00000 0.00705
9276.00000 0.007
9278.00000 0.007
9280.00000 0.00696
9282.00000 0.00695
9284.00000 0.0069
9286.00000 0.00688
9288.00000 0.00681
9290.00000 0.00677
9292.00000 0.00675
9294.00000 0.00673
9296.00000 0.00673
9298.00000 0.00669
9300.00000 0.00664
9302.00000 0.00665
9304.00000 0.0066
9306.00000 0.00658
9308.00000 0.00655
9310.00000 0.0065
9312.00000 0.00653
9314.00000 0.00647
9316.00000 0.00643
9318.00000 0.0064
9320.00000 0.00638
9322.00000 0.00636
9324.00000 0.00632
9326.00000 0.0063
9328.00000 0.0063
9330.00000 0.00626
9332.00000 0.00623
9334.00000 0.0062
9336.00000 0.00618
9338.00000 0.00614
9340.00000 0.00613
9342.00000 0.00607
9344.00000 0.00609
9346.00000 0.00603
9348.00000 0.00602
9350.00000 0.00601
9352.00000 0.00597
9354.00000 0.00592
9356.00000 0.00592
9358.00000 0.00587
9360.00000 0.00585
9362.00000 0.00583
9364.00000 0.00582
9366.00000 0.00577
9368.00000 0.00576
9370.00000 0.00573
9372.00000 0.00568
9374.00000 0.00567
9376.00000 0.00567
9378.00000 0.00565
9380.00000 0.00559
9382.00000 0.00556
9384.00000 0.00559
9386.00000 0.00556
9388.00000 0.0055
9390.00000 0.00547
9392.00000 0.00547
9394.00000 0.00545
9396.00000 0.00545
9398.00000 0.00537
9400.00000 0.00537
9402.00000 0.00538
9404.00000 0.00536
9406.00000 0.00528
9408.00000 0.00528
9410.00000 0.00525
9412.00000 0.00525
9414.00000 0.00522
9416.00000 0.00519
9418.00000 0.00519
9420.00000 0.00515
9422.00000 0.00514
9424.00000 0.00511
9426.00000 0.00508
9428.00000 0.00507
9430.00000 0.00505
9432.00000 0.00502
9434.00000 0.005
9436.00000 0.00497
9438.00000 0.00496
9440.00000 0.00494
9442.00000 0.00492
9444.00000 0.00489
9446.00000 0.00487
9448.00000 0.00488
9450.00000 0.00484
9452.00000 0.00484
9454.00000 0.00479
9456.00000 0.0048
9458.00000 0.00477
9460.00000 0.00475
9462.00000 0.00471
9464.00000 0.00474
9466.00000 0.0047
9468.00000 0.00465
9470.00000 0.00465
9472.00000 0.00462
9474.00000 0.00459
9476.00000 0.0046
9478.00000 0.00457
9480.00000 0.00458
9482.00000 0.0045
9484.00000 0.0045
9486.00000 0.00449
9488.00000 0.00447
9490.00000 0.00447
9492.00000 0.00441
9494.00000 0.00442
9496.00000 0.00439
9498.00000 0.00434
9500.00000 0.00434
9502.00000 0.00431
9504.00000 0.00433
9506.00000 0.0043
9508.00000 0.00429
9510.00000 0.0043
9512.00000 0.00426
9514.00000 0.00422
9516.00000 0.0042
9518.00000 0.00417
9520.00000 0.00419
9522.00000 0.00416
9524.00000 0.00415
9526.00000 0.00413
9528.00000 0.0041
9530.00000 0.00411
9532.00000 0.0041
9534.00000 0.00405
9536.00000 0.00404
9538.00000 0.00405
9540.00000 0.00399
9542.00000 0.00401
9544.00000 0.00398
9546.00000 0.00395
9548.00000 0.00393
9550.00000 0.00394
9552.00000 0.00388
9554.00000 0.00391
9556.00000 0.00387
9558.00000 0.00387
9560.00000 0.00384
9562.00000 0.0038
9564.00000 0.0038
9566.00000 0.00379
9568.00000 0.00379
9570.00000 0.00375
9572.00000 0.00378
9574.00000 0.00375
9576.00000 0.00372
9578.00000 0.00369
9580.00000 0.0037
9582.00000 0.00368
9584.00000 0.00368
9586.00000 0.00365
9588.00000 0.00365
9590.00000 0.00361
9592.00000 0.00361
9594.00000 0.0036
9596.00000 0.00358
9598.00000 0.00357
9600.00000 0.00353
9602.00000 0.00352
9604.00000 0.00352
9606.00000 0.00351
9608.00000 0.00348
9610.00000 0.00346
9612.00000 0.00346
9614.00000 0.00345
9616.00000 0.00342
9618.00000 0.00339
9620.00000 0.0034
9622.00000 0.00338
9624.00000 0.00338
9626.00000 0.00333
9628.00000 0.00333
9630.00000 0.0033
9632.00000 0.00332
9634.00000 0.00331
9636.00000 0.00329
9638.00000 0.00327
9640.00000 0.00331
9642.00000 0.00326
9644.00000 0.00323
9646.00000 0.00326
9648.00000 0.00323
9650.00000 0.00322
9652.00000 0.00317
9654.00000 0.00317
9656.00000 0.00317
9658.00000 0.00316
9660.00000 0.00315
9662.00000 0.00312
9664.00000 0.00311
9666.00000 0.00312
9668.00000 0.00311
9670.00000 0.00311
9672.00000 0.0031
9674.00000 0.00306
9676.00000 0.00306
9678.00000 0.00303
9680.00000 0.00301
9682.00000 0.003
9684.00000 0.00299
9686.00000 0.003
9688.00000 0.00299
9690.00000 0.00294
9692.00000 0.00297
9694.00000 0.00296
9696.00000 0.00295
9698.00000 0.0029
9700.00000 0.00291
9702.00000 0.00288
9704.00000 0.00289
9706.00000 0.00288
9708.00000 0.00285
9710.00000 0.00285
9712.00000 0.00285
9714.00000 0.00283
9716.00000 0.00281
9718.00000 0.00279
9720.00000 0.00282
9722.00000 0.00282
9724.00000 0.00278
9726.00000 0.00278
9728.00000 0.00276
9730.00000 0.00275
9732.00000 0.00275
9734.00000 0.00272
9736.00000 0.00272
9738.00000 0.00271
9740.00000 0.00269
9742.00000 0.00266
9744.00000 0.00266
9746.00000 0.00268
9748.00000 0.00264
9750.00000 0.00263
9752.00000 0.00266
9754.00000 0.00263
9756.00000 0.00263
9758.00000 0.00262
9760.00000 0.00259
9762.00000 0.00258
9764.00000 0.00258
9766.00000 0.00255
9768.00000 0.00254
9770.00000 0.00254
9772.00000 0.00253
9774.00000 0.00252
9776.00000 0.00251
9778.00000 0.0025
9780.00000 0.00249
9782.00000 0.00248
9784.00000 0.0025
9786.00000 0.00247
9788.00000 0.00244
9790.00000 0.00242
9792.00000 0.00245
9794.00000 0.00242
9796.00000 0.00243
9798.00000 0.00237
9800.00000 0.0024
9802.00000 0.0024
9804.00000 0.00239
9806.00000 0.00237
9808.00000 0.00235
9810.00000 0.00235
9812.00000 0.00235
9814.00000 0.00235
9816.00000 0.00234
9818.00000 0.00235
9820.00000 0.00231
9822.00000 0.00231
9824.00000 0.00229
9826.00000 0.00229
9828.00000 0.0023
9830.00000 0.00226
9832.00000 0.00226
9834.00000 0.00225
9836.00000 0.00224
9838.00000 0.00222
9840.00000 0.00223
9842.00000 0.00224
9844.00000 0.00218
9846.00000 0.0022
9848.00000 0.00219
9850.00000 0.00218
9852.00000 0.00219
9854.00000 0.00215
9856.00000 0.00217
9858.00000 0.00214
9860.00000 0.00214
9862.00000 0.00216
9864.00000 0.00213
9866.00000 0.00215
9868.00000 0.00213
9870.00000 0.00211
9872.00000 0.00212
9874.00000 0.0021
9876.00000 0.00209
9878.00000 0.0021
9880.00000 0.00208
9882.00000 0.00207
9884.00000 0.00204
9886.00000 0.00204
9888.00000 0.00202
9890.00000 0.00204
9892.00000 0.00203
9894.00000 0.002
9896.00000 0.00203
9898.00000 0.00203
9900.00000 0.00199
9902.00000 0.00199
9904.00000 0.00199
9906.00000 0.002
9908.00000 0.00197
9910.00000 0.00197
9912.00000 0.00196
9914.00000 0.00197
9916.00000 0.00194
9918.00000 0.00193
9920.00000 0.00192
9922.00000 0.00192
9924.00000 0.00191
9926.00000 0.00192
9928.00000 0.00192
9930.00000 0.00188
9932.00000 0.00187
9934.00000 0.00189
9936.00000 0.00188
9938.00000 0.00188
9940.00000 0.00186
9942.00000 0.00186
9944.00000 0.00186
9946.00000 0.00182
9948.00000 0.00182
9950.00000 0.00185
9952.00000 0.00181
9954.00000 0.00182
9956.00000 0.0018
9958.00000 0.0018
9960.00000 0.00178
9962.00000 0.00178
9964.00000 0.00178
9966.00000 0.00176
9968.00000 0.00178
9970.00000 0.00177
9972.00000 0.00176
9974.00000 0.00177
9976.00000 0.00174
9978.00000 0.00172
9980.00000 0.00173
9982.00000 0.00173
9984.00000 0.00171
9986.00000 0.00174
9988.00000 0.00171
9990.00000 0.00169
9992.00000 0.00168
9994.00000 0.00169
9996.00000 0.00167
9998.00000 0.00168
10000.00000 0.0017
10002.00000 0.00171
10004.00000 0.00165
10006.00000 0.00164
10008.00000 0.00163
10010.00000 0.00165
10012.00000 0.00165
10014.00000 0.00165
10016.00000 0.00161
10018.00000 0.00163
10020.00000 0.00163
10022.00000 0.00163
10024.00000 0.00161
10026.00000 0.00161
10028.00000 0.0016
10030.00000 0.0016
10032.00000 0.00158
10034.00000 0.00156
10036.00000 0.00158
10038.00000 0.0016
10040.00000 0.00158
10042.00000 0.00158
10044.00000 0.00155
10046.00000 0.00152
10048.00000 0.00155
10050.00000 0.00155
10052.00000 0.00156
10054.00000 0.00156
10056.00000 0.00152
10058.00000 0.00154
10060.00000 0.00153
10062.00000 0.00148
10064.00000 0.00149
10066.00000 0.00152
10068.00000 0.00149
10070.00000 0.0015
10072.00000 0.00148
10074.00000 0.00148
10076.00000 0.00147
10078.00000 0.0015
10080.00000 0.00144
10082.00000 0.00147
10084.00000 0.00144
10086.00000 0.00146
10088.00000 0.00142
10090.00000 0.00145
10092.00000 0.00146
10094.00000 0.00143
10096.00000 0.00146
10098.00000 0.00143
10100.00000 0.00141
10102.00000 0.00141
10104.00000 0.00142
10106.00000 0.00141
10108.00000 0.00142
10110.00000 0.00138
10112.00000 0.0014
10114.00000 0.00138
10116.00000 0.0014
10118.00000 0.00136
10120.00000 0.00139
10122.00000 0.00134
10124.00000 0.00138
10126.00000 0.00133
10128.00000 0.00135
10130.00000 0.00135
10132.00000 0.00134
10134.00000 0.00135
10136.00000 0.00135
10138.00000 0.00133
10140.00000 0.00131
10142.00000 0.00135
10144.00000 0.00132
10146.00000 0.00135
10148.00000 0.0013
10150.00000 0.00131
10152.00000 0.00128
10154.00000 0.0013
10156.00000 0.00127
10158.00000 0.00127
10160.00000 0.00128
10162.00000 0.00127
10164.00000 0.00126
10166.00000 0.00125
10168.00000 0.00126
10170.00000 0.00129
10172.00000 0.00124
10174.00000 0.00124
10176.00000 0.00127
10178.00000 0.00123
10180.00000 0.00126
10182.00000 0.00125
10184.00000 0.00123
10186.00000 0.00124
10188.00000 0.00126
10190.00000 0.00121
10192.00000 0.00122
10194.00000 0.00123
10196.00000 0.00127
10198.00000 0.00121
10200.00000 0.00122
10202.00000 0.00122
10204.00000 0.00116
10206.00000 0.00121
10208.00000 0.00119
10210.00000 0.00118
10212.00000 0.00118
10214.00000 0.0012
10216.00000 0.00118
10218.00000 0.00117
10220.00000 0.00117
10222.00000 0.00117
10224.00000 0.00118
10226.00000 0.00118
10228.00000 0.00116
10230.00000 0.00115
10232.00000 0.00115
10234.00000 0.00113
10236.00000 0.00114
10238.00000 0.00114
10240.00000 0.00112
10242.00000 0.00111
10244.00000 0.00114
10246.00000 0.00114
10248.00000 0.00113
10250.00000 0.00113
10252.00000 0.0011
10254.00000 0.00107
10256.00000 0.00113
10258.00000 0.00109
10260.00000 0.00111
10262.00000 0.00109
10264.00000 0.00109
10266.00000 0.00109
10268.00000 0.00109
10270.00000 0.00108
10272.00000 0.0011
10274.00000 0.00109
10276.00000 0.00109
10278.00000 0.00109
10280.00000 0.00109
10282.00000 0.00106
10284.00000 0.00105
10286.00000 0.00107
10288.00000 0.00103
10290.00000 0.00107
10292.00000 0.00105
10294.00000 0.00103
10296.00000 0.00105
10298.00000 0.00106
10300.00000 0.00102
10302.00000 0.00104
10304.00000 0.00104
10306.00000 0.00106
10308.00000 0.00102
10310.00000 0.00102
10312.00000 0.00104
10314.00000 0.00102
10316.00000 0.00104
10318.00000 0.00103
10320.00000 0.00101
10322.00000 0.00102
10324.00000 0.00099
10326.00000 0.00101
10328.00000 0.00098
10330.00000 0.00099
10332.00000 0.00102
10334.00000 0.00098
10336.00000 0.00098
10338.00000 0.001
10340.00000 0.00099
10342.00000 0.001
10344.00000 0.00097
10346.00000 0.00099
10348.00000 0.00097
10350.00000 0.00098
10352.00000 0.00097
10354.00000 0.00097
10356.00000 0.00094
10358.00000 0.00094
10360.00000 0.00094
10362.00000 0.00095
10364.00000 0.00095
10366.00000 0.00095
10368.00000 0.00091
10370.00000 0.00093
10372.00000 0.00096
10374.00000 0.00095
10376.00000 0.00093
10378.00000 0.00093
10380.00000 0.0009
10382.00000 0.00093
10384.00000 0.00093
10386.00000 0.00091
10388.00000 0.00092
10390.00000 0.00091
10392.00000 0.00091
10394.00000 0.00087
10396.00000 0.00092
10398.00000 0.0009
10400.00000 0.00088
10402.00000 0.0009
10404.00000 0.00089
10406.00000 0.00088
10408.00000 0.00087
10410.00000 0.00095
10412.00000 0.00092
10414.00000 0.00089
10416.00000 0.0009
10418.00000 0.00088
10420.00000 0.00087
10422.00000 0.00088
10424.00000 0.00086
10426.00000 0.00086
10428.00000 0.00087
10430.00000 0.00086
10432.00000 0.00089
10434.00000 0.00085
10436.00000 0.00086
10438.00000 0.00085
10440.00000 0.00083
10442.00000 0.00084
10444.00000 0.00083
10446.00000 0.00083
10448.00000 0.00087
10450.00000 0.00085
10452.00000 0.00082
10454.00000 0.00084
10456.00000 0.00085
10458.00000 0.00084
10460.00000 0.00083
10462.00000 0.00082
10464.00000 0.00082
10466.00000 0.00082
10468.00000 0.00082
10470.00000 0.00078
10472.00000 0.00084
10474.00000 0.00084
10476.00000 0.00081
10478.00000 0.00081
10480.00000 0.00082
10482.00000 0.00081
10484.00000 0.00078
10486.00000 0.0008
10488.00000 0.00081
10490.00000 0.00082
10492.00000 0.0008
10494.00000 0.00081
10496.00000 0.00079
10498.00000 0.00078
10500.00000 0.00079
10502.00000 0.00079
10504.00000 0.00076
10506.00000 0.00077
10508.00000 0.00078
10510.00000 0.00076
10512.00000 0.00078
10514.00000 0.00079
10516.00000 0.00077
10518.00000 0.00077
10520.00000 0.00077
10522.00000 0.00076
10524.00000 0.00076
10526.00000 0.00076
10528.00000 0.00077
10530.00000 0.00077
10532.00000 0.00073
10534.00000 0.00076
10536.00000 0.00074
10538.00000 0.00076
10540.00000 0.00076
10542.00000 0.00075
10544.00000 0.00076
10546.00000 0.00074
10548.00000 0.00072
10550.00000 0.00073
10552.00000 0.00077
10554.00000 0.00071
10556.00000 0.00072
10558.00000 0.00074
10560.00000 0.00074
10562.00000 0.00072
10564.00000 0.00073
10566.00000 0.00072
10568.00000 0.00074
10570.00000 0.00075
10572.00000 0.0007
10574.00000 0.00074
10576.00000 0.00072
10578.00000 0.00074
10580.00000 0.00071
10582.00000 0.0007
10584.00000 0.00068
10586.00000 0.00071
10588.00000 0.0007
10590.00000 0.00073
10592.00000 0.0007
10594.00000 0.00072
10596.00000 0.0007
10598.00000 0.00073
10600.00000 0.00069
10602.00000 0.00068
10604.00000 0.00069
10606.00000 0.00067
10608.00000 0.00067
10610.00000 0.00068
10612.00000 0.00067
10614.00000 0.00068
10616.00000 0.00068
10618.00000 0.00071
10620.00000 0.00066
10622.00000 0.00068
10624.00000 0.00069
10626.00000 0.00072
10628.00000 0.00067
10630.00000 0.00067
10632.00000 0.00068
10634.00000 0.00067
10636.00000 0.00067
10638.00000 0.00065
10640.00000 0.00064
10642.00000 0.00066
10644.00000 0.00066
10646.00000 0.00067
10648.00000 0.00064
10650.00000 0.00064
10652.00000 0.00068
10654.00000 0.00069
10656.00000 0.00065
10658.00000 0.00065
10660.00000 0.00065
10662.00000 0.00065
10664.00000 0.00066
10666.00000 0.00064
10668.00000 0.00063
10670.00000 0.00063
10672.00000 0.00064
10674.00000 0.00065
10676.00000 0.00064
10678.00000 0.00061
10680.00000 0.00063
10682.00000 0.00061
10684.00000 0.00063
10686.00000 0.00063
10688.00000 0.00064
10690.00000 0.00063
10692.00000 0.00062
10694.00000 0.00062
10696.00000 0.00063
10698.00000 0.00062
10700.00000 0.00063
10702.00000 0.00063
10704.00000 0.00064
10706.00000 0.00062
10708.00000 0.00061
10710.00000 0.00063
10712.00000 0.00062
10714.00000 0.00061
10716.00000 0.00061
10718.00000 0.00059
10720.00000 0.00061
10722.00000 0.00061
10724.00000 0.0006
10726.00000 0.00058
10728.00000 0.00059
10730.00000 0.0006
10732.00000 0.00059
10734.00000 0.00059
10736.00000 0.0006
10738.00000 0.00058
10740.00000 0.00057
10742.00000 0.0006
10744.00000 0.0006
10746.00000 0.00058
10748.00000 0.0006
10750.00000 0.00058
10752.00000 0.0006
10754.00000 0.00057
10756.00000 0.00059
10758.00000 0.00058
10760.00000 0.00058
10762.00000 0.00058
10764.00000 0.00058
10766.00000 0.00057
10768.00000 0.00056
10770.00000 0.00057
10772.00000 0.00058
10774.00000 0.00054
10776.00000 0.00056
10778.00000 0.00058
10780.00000 0.00056
10782.00000 0.00055
10784.00000 0.0006
10786.00000 0.00057
10788.00000 0.00054
10790.00000 0.00057
10792.00000 0.00057
10794.00000 0.00057
10796.00000 0.00058
10798.00000 0.00057
10800.00000 0.00057
10802.00000 0.00054
10804.00000 0.00055
10806.00000 0.00055
10808.00000 0.00055
10810.00000 0.00057
10812.00000 0.00055
10814.00000 0.00055
10816.00000 0.00052
10818.00000 0.00053
10820.00000 0.00056
10822.00000 0.00055
10824.00000 0.00054
10826.00000 0.00054
10828.00000 0.00055
10830.00000 0.00054
10832.00000 0.00054
10834.00000 0.00052
10836.00000 0.00054
10838.00000 0.00052
10840.00000 0.00054
10842.00000 0.00051
10844.00000 0.00052
10846.00000 0.0005
10848.00000 0.00051
10850.00000 0.00051
10852.00000 0.00054
10854.00000 0.00053
10856.00000 0.00052
10858.00000 0.00052
10860.00000 0.00053
10862.00000 0.00053
10864.00000 0.00051
10866.00000 0.00052
10868.00000 0.00051
10870.00000 0.00052
10872.00000 0.00049
10874.00000 0.00053
10876.00000 0.00051
10878.00000 0.00049
10880.00000 0.00047
10882.00000 0.00051
10884.00000 0.00051
10886.00000 0.00053
10888.00000 0.00051
10890.00000 0.00052
10892.00000 0.00049
10894.00000 0.00052
10896.00000 0.00048
10898.00000 0.00051
10900.00000 0.00052
10902.00000 0.0005
10904.00000 0.00052
10906.00000 0.00052
10908.00000 0.00049
10910.00000 0.00049
10912.00000 0.00052
10914.00000 0.00051
10916.00000 0.00051
10918.00000 0.0005
10920.00000 0.00048
10922.00000 0.00047
10924.00000 0.00048
10926.00000 0.00048
10928.00000 0.00049
10930.00000 0.00047
10932.00000 0.00047
10934.00000 0.00045
10936.00000 0.00045
10938.00000 0.00046
10940.00000 0.00048
10942.00000 0.0005
10944.00000 0.00045
10946.00000 0.00048
10948.00000 0.0005
10950.00000 0.00048
10952.00000 0.00048
10954.00000 0.00044
10956.00000 0.00046
10958.00000 0.00047
10960.00000 0.00047
10962.00000 0.00046
10964.00000 0.00048
10966.00000 0.00048
10968.00000 0.00048
10970.00000 0.00048
10972.00000 0.00048
10974.00000 0.00047
10976.00000 0.00046
10978.00000 0.00045
10980.00000 0.00046
10982.00000 0.00048
10984.00000 0.00047
10986.00000 0.00048
10988.00000 0.00046
10990.00000 0.00045
10992.00000 0.00044
10994.00000 0.00045
10996.00000 0.00045
10998.00000 0.00045
11000.00000 0.00047
12100.00000 0.0
