# %ECSV 0.9
# ---
# datatype:
# - {name: wavelength, unit: Angstrom, datatype: float32}
# - {name: response, datatype: float32}
# meta: !!omap
# - {band_name: zSDSS}
# - {group_name: JPLUS}
wavelength response
7640.00000 0.0
7645.00000 1e-06
7650.00000 4e-06
7655.00000 6e-06
7660.00000 7e-06
7665.00000 9e-06
7670.00000 1.1e-05
7675.00000 1.4e-05
7680.00000 1.8e-05
7685.00000 2.3e-05
7690.00000 3e-05
7695.00000 3.8e-05
7700.00000 4.8e-05
7705.00000 5.1e-05
7710.00000 5.5e-05
7715.00000 5.9e-05
7720.00000 6.4e-05
7725.00000 6.8e-05
7730.00000 7.3e-05
7735.00000 7.8e-05
7740.00000 8.4e-05
7745.00000 9e-05
7750.00000 9.7e-05
7755.00000 0.000106
7760.00000 0.000117
7765.00000 0.000128
7770.00000 0.00014
7775.00000 0.000154
7780.00000 0.000169
7785.00000 0.000186
7790.00000 0.000204
7795.00000 0.000223
7800.00000 0.000245
7805.00000 0.000277
7810.00000 0.000313
7815.00000 0.000354
7820.00000 0.0004
7825.00000 0.000452
7830.00000 0.000511
7835.00000 0.000578
7840.00000 0.000653
7845.00000 0.000738
7850.00000 0.000833
7855.00000 0.000902
7860.00000 0.000976
7865.00000 0.001056
7870.00000 0.001142
7875.00000 0.001236
7880.00000 0.001337
7885.00000 0.001446
7890.00000 0.001564
7895.00000 0.001691
7900.00000 0.001828
7905.00000 0.002022
7910.00000 0.002236
7915.00000 0.002472
7920.00000 0.002733
7925.00000 0.003021
7930.00000 0.00334
7935.00000 0.003691
7940.00000 0.004078
7945.00000 0.004505
7950.00000 0.004977
7955.00000 0.005421
7960.00000 0.005904
7965.00000 0.006429
7970.00000 0.007
7975.00000 0.007621
7980.00000 0.008297
7985.00000 0.009031
7990.00000 0.009829
7995.00000 0.010696
8000.00000 0.011639
8005.00000 0.012678
8010.00000 0.013809
8015.00000 0.015039
8020.00000 0.016377
8025.00000 0.017832
8030.00000 0.019415
8035.00000 0.021135
8040.00000 0.023005
8045.00000 0.025038
8050.00000 0.027248
8055.00000 0.029408
8060.00000 0.031736
8065.00000 0.034246
8070.00000 0.03695
8075.00000 0.039864
8080.00000 0.043003
8085.00000 0.046386
8090.00000 0.050029
8095.00000 0.053954
8100.00000 0.058181
8105.00000 0.062163
8110.00000 0.066412
8115.00000 0.070946
8120.00000 0.075783
8125.00000 0.080942
8130.00000 0.086446
8135.00000 0.092317
8140.00000 0.098578
8145.00000 0.105256
8150.00000 0.112376
8155.00000 0.118589
8160.00000 0.125138
8165.00000 0.132039
8170.00000 0.139312
8175.00000 0.146975
8180.00000 0.15505
8185.00000 0.163557
8190.00000 0.172519
8195.00000 0.181961
8200.00000 0.191906
8205.00000 0.200145
8210.00000 0.208726
8215.00000 0.217663
8220.00000 0.226972
8225.00000 0.236666
8230.00000 0.246761
8235.00000 0.257274
8240.00000 0.268221
8245.00000 0.279619
8250.00000 0.291486
8255.00000 0.301129
8260.00000 0.311078
8265.00000 0.321342
8270.00000 0.331932
8275.00000 0.342857
8280.00000 0.354127
8285.00000 0.365753
8290.00000 0.377746
8295.00000 0.390117
8300.00000 0.402876
8305.00000 0.412848
8310.00000 0.423054
8315.00000 0.433499
8320.00000 0.444189
8325.00000 0.455129
8330.00000 0.466324
8335.00000 0.47778
8340.00000 0.489503
8345.00000 0.501498
8350.00000 0.513773
8355.00000 0.523149
8360.00000 0.532685
8365.00000 0.542383
8370.00000 0.552244
8375.00000 0.562273
8380.00000 0.572471
8385.00000 0.582841
8390.00000 0.593386
8395.00000 0.604109
8400.00000 0.615011
8405.00000 0.623018
8410.00000 0.631119
8415.00000 0.639315
8420.00000 0.647606
8425.00000 0.655996
8430.00000 0.664483
8435.00000 0.67307
8440.00000 0.681756
8445.00000 0.690545
8450.00000 0.699435
8455.00000 0.705834
8460.00000 0.712283
8465.00000 0.718783
8470.00000 0.725335
8475.00000 0.731938
8480.00000 0.738593
8485.00000 0.7453
8490.00000 0.752059
8495.00000 0.758872
8500.00000 0.765738
8505.00000 0.770635
8510.00000 0.775556
8515.00000 0.780504
8520.00000 0.785476
8525.00000 0.790474
8530.00000 0.795498
8535.00000 0.800547
8540.00000 0.805623
8545.00000 0.810724
8550.00000 0.815852
8555.00000 0.820301
8560.00000 0.82477
8565.00000 0.829257
8570.00000 0.833763
8575.00000 0.838288
8580.00000 0.842832
8585.00000 0.847395
8590.00000 0.851978
8595.00000 0.85658
8600.00000 0.861201
8605.00000 0.862619
8610.00000 0.864039
8615.00000 0.865458
8620.00000 0.866879
8625.00000 0.8683
8630.00000 0.869721
8635.00000 0.871143
8640.00000 0.872566
8645.00000 0.873989
8650.00000 0.875413
8655.00000 0.878296
8660.00000 0.881185
8665.00000 0.884081
8670.00000 0.886982
8675.00000 0.889889
8680.00000 0.892803
8685.00000 0.895723
8690.00000 0.898648
8695.00000 0.90158
8700.00000 0.904519
8705.00000 0.905989
8710.00000 0.90746
8715.00000 0.908932
8720.00000 0.910404
8725.00000 0.911877
8730.00000 0.913351
8735.00000 0.914826
8740.00000 0.916301
8745.00000 0.917778
8750.00000 0.919254
8755.00000 0.920367
8760.00000 0.921479
8765.00000 0.922592
8770.00000 0.923705
8775.00000 0.924818
8780.00000 0.925931
8785.00000 0.927044
8790.00000 0.928158
8795.00000 0.929271
8800.00000 0.930385
8805.00000 0.931508
8810.00000 0.932632
8815.00000 0.933755
8820.00000 0.934879
8825.00000 0.936003
8830.00000 0.937127
8835.00000 0.938251
8840.00000 0.939376
8845.00000 0.9405
8850.00000 0.941625
8855.00000 0.942376
8860.00000 0.943128
8865.00000 0.943879
8870.00000 0.94463
8875.00000 0.945381
8880.00000 0.946131
8885.00000 0.946882
8890.00000 0.947633
8895.00000 0.948383
8900.00000 0.949133
8905.00000 0.949505
8910.00000 0.949877
8915.00000 0.950248
8920.00000 0.95062
8925.00000 0.950991
8930.00000 0.951362
8935.00000 0.951734
8940.00000 0.952105
8945.00000 0.952476
8950.00000 0.952846
8955.00000 0.952834
8960.00000 0.952822
8965.00000 0.95281
8970.00000 0.952798
8975.00000 0.952787
8980.00000 0.952775
8985.00000 0.952764
8990.00000 0.952753
8995.00000 0.952743
9000.00000 0.952732
9005.00000 0.953109
9010.00000 0.953485
9015.00000 0.953861
9020.00000 0.954237
9025.00000 0.954614
9030.00000 0.95499
9035.00000 0.955366
9040.00000 0.955742
9045.00000 0.956117
9050.00000 0.956493
9055.00000 0.956873
9060.00000 0.957252
9065.00000 0.957632
9070.00000 0.958011
9075.00000 0.95839
9080.00000 0.958769
9085.00000 0.959149
9090.00000 0.959528
9095.00000 0.959907
9100.00000 0.960286
9105.00000 0.96028
9110.00000 0.960274
9115.00000 0.960268
9120.00000 0.960262
9125.00000 0.960257
9130.00000 0.960251
9135.00000 0.960246
9140.00000 0.960242
9145.00000 0.960237
9150.00000 0.960233
9155.00000 0.960618
9160.00000 0.961003
9165.00000 0.961387
9170.00000 0.961772
9175.00000 0.962157
9180.00000 0.962541
9185.00000 0.962926
9190.00000 0.963311
9195.00000 0.963695
9200.00000 0.964079
9205.00000 0.964077
9210.00000 0.964075
9215.00000 0.964074
9220.00000 0.964072
9225.00000 0.964071
9230.00000 0.96407
9235.00000 0.964069
9240.00000 0.964069
9245.00000 0.964068
9250.00000 0.964068
9255.00000 0.964068
9260.00000 0.964068
9265.00000 0.964069
9270.00000 0.964069
9275.00000 0.96407
9280.00000 0.964071
9285.00000 0.964072
9290.00000 0.964073
9295.00000 0.964075
9300.00000 0.964077
9305.00000 0.964079
9310.00000 0.964081
9315.00000 0.964083
9320.00000 0.964086
9325.00000 0.964088
9330.00000 0.964091
9335.00000 0.964094
9340.00000 0.964098
9345.00000 0.964101
9350.00000 0.964104
9355.00000 0.964108
9360.00000 0.964112
9365.00000 0.964116
9370.00000 0.96412
9375.00000 0.964125
9380.00000 0.96413
9385.00000 0.964134
9390.00000 0.964139
9395.00000 0.964144
9400.00000 0.96415
9405.00000 0.964155
9410.00000 0.964161
9415.00000 0.964166
9420.00000 0.964172
9425.00000 0.964178
9430.00000 0.964184
9435.00000 0.964191
9440.00000 0.964197
9445.00000 0.964204
9450.00000 0.96421
9455.00000 0.964217
9460.00000 0.964224
9465.00000 0.964232
9470.00000 0.964239
9475.00000 0.964246
9480.00000 0.964254
9485.00000 0.964261
9490.00000 0.964269
9495.00000 0.964277
9500.00000 0.964285
9505.00000 0.964293
9510.00000 0.964302
9515.00000 0.96431
9520.00000 0.964319
9525.00000 0.964327
9530.00000 0.964336
9535.00000 0.964345
9540.00000 0.964354
9545.00000 0.964363
9550.00000 0.964372
9555.00000 0.964381
9560.00000 0.96439
9565.00000 0.9644
9570.00000 0.96441
9575.00000 0.964419
9580.00000 0.964429
9585.00000 0.964438
9590.00000 0.964448
9595.00000 0.964458
9600.00000 0.964468
9605.00000 0.964478
9610.00000 0.964488
9615.00000 0.964499
9620.00000 0.964509
9625.00000 0.964519
9630.00000 0.96453
9635.00000 0.96454
9640.00000 0.964551
9645.00000 0.964561
9650.00000 0.964572
9655.00000 0.964583
9660.00000 0.964593
9665.00000 0.964604
9670.00000 0.964615
9675.00000 0.964626
9680.00000 0.964637
9685.00000 0.964648
9690.00000 0.964659
9695.00000 0.96467
9700.00000 0.964681
9705.00000 0.964692
9710.00000 0.964703
9715.00000 0.964714
9720.00000 0.964726
9725.00000 0.964737
9730.00000 0.964748
9735.00000 0.964759
9740.00000 0.96477
9745.00000 0.964781
9750.00000 0.964793
9755.00000 0.964804
9760.00000 0.964815
9765.00000 0.964826
9770.00000 0.964837
9775.00000 0.964848
9780.00000 0.96486
9785.00000 0.964871
9790.00000 0.964882
9795.00000 0.964893
9800.00000 0.964904
9805.00000 0.964915
9810.00000 0.964926
9815.00000 0.964937
9820.00000 0.964948
9825.00000 0.964959
9830.00000 0.96497
9835.00000 0.964981
9840.00000 0.964992
9845.00000 0.965003
9850.00000 0.965013
9855.00000 0.965024
9860.00000 0.965035
9865.00000 0.965045
9870.00000 0.965056
9875.00000 0.965066
9880.00000 0.965077
9885.00000 0.965087
9890.00000 0.965097
9895.00000 0.965108
9900.00000 0.965118
9905.00000 0.965518
9910.00000 0.965919
9915.00000 0.966319
9920.00000 0.966718
9925.00000 0.967118
9930.00000 0.967517
9935.00000 0.967915
9940.00000 0.968314
9945.00000 0.968712
9950.00000 0.969109
9955.00000 0.969119
9960.00000 0.969128
9965.00000 0.969137
9970.00000 0.969146
9975.00000 0.969155
9980.00000 0.969163
9985.00000 0.969172
9990.00000 0.96918
9995.00000 0.969189
10000.00000 0.969197
10005.00000 0.969205
10010.00000 0.969213
10015.00000 0.969221
10020.00000 0.969229
10025.00000 0.969236
10030.00000 0.969244
10035.00000 0.969251
10040.00000 0.969258
10045.00000 0.969265
10050.00000 0.969272
10055.00000 0.969279
10060.00000 0.969286
10065.00000 0.969292
10070.00000 0.969298
10075.00000 0.969304
10080.00000 0.96931
10085.00000 0.969316
10090.00000 0.969322
10095.00000 0.969327
10100.00000 0.969333
10105.00000 0.969338
10110.00000 0.969343
10115.00000 0.969348
10120.00000 0.969352
10125.00000 0.969357
10130.00000 0.969361
10135.00000 0.969365
10140.00000 0.969369
10145.00000 0.969373
10150.00000 0.969376
10155.00000 0.96938
10160.00000 0.969383
10165.00000 0.969386
10170.00000 0.969388
10175.00000 0.969391
10180.00000 0.969393
10185.00000 0.969395
10190.00000 0.969397
10195.00000 0.969399
10200.00000 0.9694
10205.00000 0.969402
10210.00000 0.969403
10215.00000 0.969403
10220.00000 0.969404
10225.00000 0.969405
10230.00000 0.969405
10235.00000 0.969405
10240.00000 0.969404
10245.00000 0.969404
10250.00000 0.969403
10255.00000 0.969402
10260.00000 0.969401
10265.00000 0.969399
10270.00000 0.969398
10275.00000 0.969396
10280.00000 0.969393
10285.00000 0.969391
10290.00000 0.969388
10295.00000 0.969385
10300.00000 0.969382
10305.00000 0.969379
10310.00000 0.969375
10315.00000 0.969371
10320.00000 0.969367
10325.00000 0.969362
10330.00000 0.969357
10335.00000 0.969352
10340.00000 0.969347
10345.00000 0.969341
10350.00000 0.969336
10355.00000 0.969329
10360.00000 0.969323
10365.00000 0.969316
10370.00000 0.969309
10375.00000 0.969302
10380.00000 0.969295
10385.00000 0.969287
10390.00000 0.969279
10395.00000 0.96927
10400.00000 0.969262
10405.00000 0.969253
10410.00000 0.969243
10415.00000 0.969234
10420.00000 0.969224
10425.00000 0.969214
10430.00000 0.969203
10435.00000 0.969192
10440.00000 0.969181
10445.00000 0.96917
10450.00000 0.969158
10455.00000 0.969146
10460.00000 0.969134
10465.00000 0.969121
10470.00000 0.969108
10475.00000 0.969095
10480.00000 0.969081
10485.00000 0.969067
10490.00000 0.969053
10495.00000 0.969039
10500.00000 0.969024
10505.00000 0.969009
10510.00000 0.968993
10515.00000 0.968977
10520.00000 0.968961
10525.00000 0.968945
10530.00000 0.968928
10535.00000 0.968911
10540.00000 0.968893
10545.00000 0.968875
10550.00000 0.968857
10555.00000 0.968838
10560.00000 0.96882
10565.00000 0.9688
10570.00000 0.968781
10575.00000 0.968761
10580.00000 0.968741
10585.00000 0.96872
10590.00000 0.968699
10595.00000 0.968678
10600.00000 0.968656
10605.00000 0.968611
10610.00000 0.968566
10615.00000 0.968521
10620.00000 0.968475
10625.00000 0.968429
10630.00000 0.968383
10635.00000 0.968336
10640.00000 0.968289
10645.00000 0.968241
10650.00000 0.968194
10655.00000 0.968146
10660.00000 0.968097
10665.00000 0.968048
10670.00000 0.967999
10675.00000 0.96795
10680.00000 0.9679
10685.00000 0.96785
10690.00000 0.967799
10695.00000 0.967748
10700.00000 0.967697
10705.00000 0.967645
10710.00000 0.967593
10715.00000 0.967541
10720.00000 0.967488
10725.00000 0.967435
10730.00000 0.967382
10735.00000 0.967328
10740.00000 0.967274
10745.00000 0.96722
10750.00000 0.967165
10755.00000 0.967109
10760.00000 0.967054
10765.00000 0.966998
10770.00000 0.966941
10775.00000 0.966885
10780.00000 0.966828
10785.00000 0.96677
10790.00000 0.966712
10795.00000 0.966654
10800.00000 0.966596
10805.00000 0.966537
10810.00000 0.966478
10815.00000 0.966418
10820.00000 0.966358
10825.00000 0.966298
10830.00000 0.966237
10835.00000 0.966176
10840.00000 0.966114
10845.00000 0.966052
10850.00000 0.96599
10855.00000 0.965927
10860.00000 0.965864
10865.00000 0.965801
10870.00000 0.965737
10875.00000 0.965673
10880.00000 0.965608
10885.00000 0.965543
10890.00000 0.965478
10895.00000 0.965412
10900.00000 0.965346
10905.00000 0.965279
10910.00000 0.965212
10915.00000 0.965145
10920.00000 0.965077
10925.00000 0.965009
10930.00000 0.964941
10935.00000 0.964872
10940.00000 0.964803
10945.00000 0.964733
10950.00000 0.964663
10955.00000 0.964592
10960.00000 0.964522
10965.00000 0.96445
10970.00000 0.964379
10975.00000 0.964306
10980.00000 0.964234
10985.00000 0.964161
10990.00000 0.964088
10995.00000 0.964014
11000.00000 0.96394
11005.00000 0.963874
11010.00000 0.963808
11015.00000 0.963742
11020.00000 0.963675
11025.00000 0.963608
11030.00000 0.96354
11035.00000 0.963472
11040.00000 0.963403
11045.00000 0.963334
11050.00000 0.963265
11055.00000 0.963195
11060.00000 0.963124
11065.00000 0.963054
11070.00000 0.962983
11075.00000 0.962911
11080.00000 0.962839
11085.00000 0.962767
11090.00000 0.962694
11095.00000 0.962621
11100.00000 0.962548
11105.00000 0.962474
11110.00000 0.962399
11115.00000 0.962324
11120.00000 0.962249
11125.00000 0.962173
11130.00000 0.962097
11135.00000 0.962021
11140.00000 0.961944
11145.00000 0.961867
11150.00000 0.961789
11155.00000 0.961711
11160.00000 0.961632
11165.00000 0.961553
11170.00000 0.961474
11175.00000 0.961394
11180.00000 0.961314
11185.00000 0.961233
11190.00000 0.961152
11195.00000 0.961071
11200.00000 0.960989
11205.00000 0.960906
11210.00000 0.960824
11215.00000 0.96074
11220.00000 0.960657
11225.00000 0.960573
11230.00000 0.960489
11235.00000 0.960404
11240.00000 0.960319
11245.00000 0.960233
11250.00000 0.960147
11255.00000 0.96006
11260.00000 0.959974
11265.00000 0.959886
11270.00000 0.959798
11275.00000 0.95971
11280.00000 0.959622
11285.00000 0.959533
11290.00000 0.959444
11295.00000 0.959354
11300.00000 0.959263
11305.00000 0.959173
11310.00000 0.959082
11315.00000 0.95899
11320.00000 0.958898
11325.00000 0.958806
11330.00000 0.958713
11335.00000 0.95862
11340.00000 0.958527
11345.00000 0.958433
11350.00000 0.958338
11355.00000 0.958243
11360.00000 0.958148
11365.00000 0.958053
11370.00000 0.957956
11375.00000 0.95786
11380.00000 0.957763
11385.00000 0.957666
11390.00000 0.957568
11395.00000 0.95747
11400.00000 0.957372
11405.00000 0.957273
11410.00000 0.957173
11415.00000 0.957074
11420.00000 0.956973
11425.00000 0.956873
11430.00000 0.956772
11435.00000 0.95667
11440.00000 0.956568
11445.00000 0.956466
11450.00000 0.956364
11455.00000 0.956261
11460.00000 0.956157
11465.00000 0.956053
11470.00000 0.955949
11475.00000 0.955844
11480.00000 0.955739
11485.00000 0.955634
11490.00000 0.955528
11495.00000 0.955422
11500.00000 0.955315
11505.00000 0.955208
11510.00000 0.9551
11515.00000 0.954992
11520.00000 0.954884
11525.00000 0.954775
11530.00000 0.954666
11535.00000 0.954557
11540.00000 0.954446
11545.00000 0.954336
11550.00000 0.954226
11555.00000 0.954114
11560.00000 0.954003
11565.00000 0.953891
11570.00000 0.953778
11575.00000 0.953666
11580.00000 0.953553
11585.00000 0.953439
11590.00000 0.953325
11595.00000 0.953211
11600.00000 0.953096
11605.00000 0.952981
11610.00000 0.952866
11615.00000 0.95275
11620.00000 0.952633
11625.00000 0.952517
11630.00000 0.9524
11635.00000 0.952282
11640.00000 0.952164
11645.00000 0.952046
11650.00000 0.951928
11655.00000 0.951809
11660.00000 0.951689
11665.00000 0.951569
11670.00000 0.951449
11675.00000 0.951329
11680.00000 0.951208
11685.00000 0.951086
11690.00000 0.950965
11695.00000 0.950842
11700.00000 0.95072
11705.00000 0.950597
11710.00000 0.950474
11715.00000 0.95035
11720.00000 0.950226
11725.00000 0.950102
11730.00000 0.949977
11735.00000 0.949852
11740.00000 0.949727
11745.00000 0.949601
11750.00000 0.949474
11755.00000 0.949348
11760.00000 0.949221
11765.00000 0.949093
11770.00000 0.948966
11775.00000 0.948838
11780.00000 0.948709
11785.00000 0.94858
11790.00000 0.948451
11795.00000 0.948321
11800.00000 0.948191
11805.00000 0.948061
11810.00000 0.94793
11815.00000 0.947799
11820.00000 0.947668
11825.00000 0.947536
11830.00000 0.947404
11835.00000 0.947271
11840.00000 0.947139
11845.00000 0.947006
11850.00000 0.946872
11855.00000 0.946738
11860.00000 0.946604
11865.00000 0.946469
11870.00000 0.946334
11875.00000 0.946199
11880.00000 0.946063
11885.00000 0.945927
11890.00000 0.94579
11895.00000 0.945654
11900.00000 0.945516
11905.00000 0.945379
11910.00000 0.945241
11915.00000 0.945103
11920.00000 0.944965
11925.00000 0.944826
11930.00000 0.944687
11935.00000 0.944547
11940.00000 0.944407
11945.00000 0.944267
11950.00000 0.944126
11955.00000 0.943986
11960.00000 0.943844
11965.00000 0.943703
11970.00000 0.943561
11975.00000 0.943419
11980.00000 0.943276
11985.00000 0.943133
11990.00000 0.94299
11995.00000 0.942846
12000.00000 0.942702
13200.00000 0.0
