# %ECSV 0.9
# ---
# datatype:
# - {name: wavelength, unit: Angstrom, datatype: float32}
# - {name: response, datatype: float32}
# meta: !!omap
# - {band_name: R}
# - {group_name: MosaicII}
wavelength response
4974.56982 0.0
5527.29980 0.0044
5533.29980 0.0053
5539.39990 0.0067
5545.39990 0.0085
5551.39990 0.0106
5557.39990 0.0142
5563.39990 0.0177
5569.39990 0.0224
5575.39990 0.0278
5581.39990 0.0351
5587.39990 0.0434
5593.39990 0.0536
5599.39990 0.0652
5605.39990 0.0789
5611.39990 0.0946
5617.39990 0.1118
5623.39990 0.131
5629.50000 0.1526
5635.50000 0.1754
5641.50000 0.1996
5647.50000 0.2252
5653.50000 0.2515
5659.50000 0.2784
5665.50000 0.3065
5671.50000 0.3346
5677.50000 0.363
5683.50000 0.3912
5689.50000 0.4188
5695.50000 0.4464
5701.50000 0.4725
5707.50000 0.4976
5713.50000 0.5217
5719.60010 0.5444
5725.60010 0.5654
5731.60010 0.5867
5737.60010 0.606
5743.60010 0.6243
5749.60010 0.6405
5755.60010 0.6559
5761.60010 0.6708
5767.60010 0.685
5773.60010 0.6974
5779.60010 0.7089
5785.60010 0.7199
5791.60010 0.7288
5797.60010 0.7381
5803.60010 0.7464
5809.70020 0.7542
5815.70020 0.7611
5821.70020 0.767
5827.70020 0.7731
5833.70020 0.7784
5839.70020 0.7836
5845.70020 0.7876
5851.70020 0.7909
5857.70020 0.7948
5863.70020 0.7986
5869.70020 0.8011
5875.70020 0.8032
5881.70020 0.8044
5887.70020 0.8068
5893.70020 0.8083
5899.79980 0.8102
5905.79980 0.8109
5911.79980 0.8114
5917.79980 0.8126
5923.79980 0.8138
5929.79980 0.8148
5935.79980 0.8163
5941.79980 0.8171
5947.79980 0.8167
5953.79980 0.8174
5959.79980 0.8178
5965.79980 0.8185
5971.79980 0.8187
5977.79980 0.8188
5983.79980 0.8194
5989.89990 0.8198
5995.89990 0.8183
6001.89990 0.8183
6007.89990 0.8183
6013.89990 0.8173
6019.89990 0.8173
6025.89990 0.8166
6031.89990 0.8155
6037.89990 0.8144
6043.89990 0.8135
6049.89990 0.8133
6055.89990 0.8125
6061.89990 0.8107
6067.89990 0.8097
6073.89990 0.8089
6079.89990 0.8082
6086.00000 0.8072
6092.00000 0.8067
6098.00000 0.8059
6104.00000 0.8049
6110.00000 0.8036
6116.00000 0.8029
6122.00000 0.8027
6128.00000 0.8021
6134.00000 0.8007
6140.00000 0.7995
6146.00000 0.7982
6152.00000 0.7965
6158.00000 0.7954
6164.00000 0.7932
6170.00000 0.7915
6176.10010 0.7902
6182.10010 0.7889
6188.10010 0.7874
6194.10010 0.7863
6200.10010 0.7844
6206.10010 0.783
6212.10010 0.7816
6218.10010 0.7802
6224.10010 0.7789
6230.10010 0.7784
6236.10010 0.7775
6242.10010 0.7757
6248.10010 0.7726
6254.10010 0.7679
6260.10010 0.7659
6266.20020 0.7652
6272.20020 0.764
6278.20020 0.7629
6284.20020 0.7618
6290.20020 0.7595
6296.20020 0.7576
6302.20020 0.7557
6308.20020 0.7547
6314.20020 0.7535
6320.20020 0.7514
6326.20020 0.7491
6332.20020 0.7473
6338.20020 0.7461
6344.20020 0.745
6350.20020 0.7437
6356.29980 0.742
6362.29980 0.7403
6368.29980 0.7385
6374.29980 0.7368
6380.29980 0.7349
6386.29980 0.7332
6392.29980 0.7317
6398.29980 0.7297
6404.29980 0.7276
6410.29980 0.7257
6416.29980 0.7235
6422.29980 0.7217
6428.29980 0.7202
6434.29980 0.7187
6440.29980 0.716
6446.39990 0.7143
6452.39990 0.7126
6458.39990 0.7103
6464.39990 0.7084
6470.39990 0.7065
6476.39990 0.7049
6482.39990 0.7019
6488.39990 0.6999
6494.39990 0.6986
6500.39990 0.6962
6506.39990 0.694
6512.39990 0.692
6518.39990 0.6896
6524.39990 0.6873
6530.39990 0.6852
6536.50000 0.6839
6542.50000 0.682
6548.50000 0.6799
6554.50000 0.6778
6560.50000 0.6754
6566.50000 0.6735
6572.50000 0.6715
6578.50000 0.6689
6584.50000 0.6662
6590.50000 0.6642
6596.50000 0.6614
6602.50000 0.6598
6608.50000 0.6576
6614.50000 0.6556
6620.50000 0.6536
6626.60010 0.6517
6632.60010 0.6485
6638.60010 0.6462
6644.60010 0.6439
6650.60010 0.6418
6656.60010 0.6403
6662.60010 0.6379
6668.60010 0.6355
6674.60010 0.633
6680.60010 0.6306
6686.60010 0.6279
6692.60010 0.6255
6698.60010 0.6233
6704.60010 0.621
6710.60010 0.6186
6716.70020 0.6167
6722.70020 0.6138
6728.70020 0.6106
6734.70020 0.6081
6740.70020 0.6057
6746.70020 0.6039
6752.70020 0.6015
6758.70020 0.5994
6764.70020 0.5967
6770.70020 0.594
6776.70020 0.5915
6782.70020 0.5894
6788.70020 0.5865
6794.70020 0.5841
6800.70020 0.5817
6806.79980 0.5793
6812.79980 0.5766
6818.79980 0.5742
6824.79980 0.5716
6830.79980 0.5688
6836.79980 0.5657
6842.79980 0.5631
6848.79980 0.5593
6854.79980 0.5563
6860.79980 0.5532
6866.79980 0.5497
6872.79980 0.5472
6878.79980 0.5443
6884.79980 0.5415
6890.79980 0.5385
6896.89990 0.536
6902.89990 0.5329
6908.89990 0.5304
6914.89990 0.5283
6920.89990 0.5257
6926.89990 0.5222
6932.89990 0.5193
6938.89990 0.5171
6944.89990 0.5144
6950.89990 0.5112
6956.89990 0.5087
6962.89990 0.5058
6968.89990 0.5028
6974.89990 0.4998
6980.89990 0.4968
6987.00000 0.4936
6993.00000 0.4903
6999.00000 0.4873
7005.00000 0.4846
7011.00000 0.4817
7017.00000 0.4789
7023.00000 0.4764
7029.00000 0.4735
7035.00000 0.4708
7041.00000 0.4676
7047.00000 0.4652
7053.00000 0.4627
7059.00000 0.4598
7065.00000 0.4571
7071.00000 0.4546
7077.10010 0.4522
7083.10010 0.4489
7089.10010 0.4465
7095.10010 0.4441
7101.10010 0.4416
7107.10010 0.439
7113.10010 0.4357
7119.10010 0.4329
7125.10010 0.43
7131.10010 0.4273
7137.10010 0.4243
7143.10010 0.4217
7149.10010 0.4191
7155.10010 0.4162
7161.10010 0.4138
7167.10010 0.4112
7173.20020 0.4085
7179.20020 0.4056
7185.20020 0.403
7191.20020 0.4006
7197.20020 0.3982
7203.20020 0.3958
7209.20020 0.3934
7215.20020 0.3907
7221.20020 0.3881
7227.20020 0.3857
7233.20020 0.3827
7239.20020 0.3798
7245.20020 0.3773
7251.20020 0.3746
7257.20020 0.3722
7263.29980 0.369
7269.29980 0.3662
7275.29980 0.3632
7281.29980 0.3606
7287.29980 0.3577
7293.29980 0.3549
7299.29980 0.3524
7305.29980 0.3498
7311.29980 0.3471
7317.29980 0.3452
7323.29980 0.3428
7329.29980 0.3403
7335.29980 0.3378
7341.29980 0.3355
7347.29980 0.3332
7353.39990 0.3308
7359.39990 0.3284
7365.39990 0.326
7371.39990 0.3236
7377.39990 0.3207
7383.39990 0.3182
7389.39990 0.3154
7395.39990 0.3131
7401.39990 0.3107
7407.39990 0.3079
7413.39990 0.3058
7419.39990 0.3036
7425.39990 0.3007
7431.39990 0.2986
7437.39990 0.2963
7443.50000 0.2939
7449.50000 0.2922
7455.50000 0.2893
7461.50000 0.2866
7467.50000 0.2847
7473.50000 0.2824
7479.50000 0.2804
7485.50000 0.2781
7491.50000 0.2757
7497.50000 0.2739
7503.50000 0.2709
7509.50000 0.2686
7515.50000 0.2663
7521.50000 0.2637
7527.50000 0.2613
7533.60010 0.259
7539.60010 0.2569
7545.60010 0.2548
7551.60010 0.2527
7557.60010 0.2503
7563.60010 0.2479
7569.60010 0.2465
7575.60010 0.2447
7581.60010 0.2423
7587.60010 0.2402
7593.60010 0.238
7599.60010 0.2354
7605.60010 0.2336
7611.60010 0.2316
7617.60010 0.2302
7623.70020 0.2279
7629.70020 0.2256
7635.70020 0.2238
7641.70020 0.2216
7647.70020 0.2192
7653.70020 0.2169
7659.70020 0.2152
7665.70020 0.2133
7671.70020 0.2115
7677.70020 0.21
7683.70020 0.2078
7689.70020 0.2058
7695.70020 0.204
7701.70020 0.2017
7707.70020 0.1998
7713.79980 0.1979
7719.79980 0.1956
7725.79980 0.1938
7731.79980 0.1916
7737.79980 0.1899
7743.79980 0.1881
7749.79980 0.1864
7755.79980 0.1846
7761.79980 0.1825
7767.79980 0.1809
7773.79980 0.1788
7779.79980 0.1769
7785.79980 0.1753
7791.79980 0.1736
7797.79980 0.1717
7803.89990 0.1704
7809.89990 0.1684
7815.89990 0.1666
7821.89990 0.1647
7827.89990 0.1633
7833.89990 0.162
7839.89990 0.1599
7845.89990 0.1588
7851.89990 0.1574
7857.89990 0.1553
7863.89990 0.1541
7869.89990 0.1528
7875.89990 0.1513
7881.89990 0.15
7887.89990 0.1486
7894.00000 0.1468
7900.00000 0.145
7906.00000 0.1434
7912.00000 0.1421
7918.00000 0.1403
7924.00000 0.1381
7930.00000 0.137
7936.00000 0.1356
7942.00000 0.1339
7948.00000 0.1323
7954.00000 0.1307
7960.00000 0.1299
7966.00000 0.1289
7972.00000 0.1278
7978.00000 0.1258
7984.10010 0.1247
7990.10010 0.1236
7996.10010 0.1217
8002.10010 0.12
8008.10010 0.1192
8014.10010 0.117
8020.10010 0.1161
8026.10010 0.1153
8032.10010 0.1136
8038.10010 0.1117
8044.10010 0.111
8050.10010 0.1098
8056.10010 0.1086
8062.10010 0.1075
8068.10010 0.1062
8074.20020 0.1051
8080.20020 0.1035
8086.20020 0.1024
8092.20020 0.1014
8098.20020 0.1002
8104.20020 0.0989
8110.20020 0.0972
8116.20020 0.0963
8122.20020 0.0955
8128.20020 0.0943
8134.20020 0.0931
8140.20020 0.0921
8146.20020 0.0911
8152.20020 0.0903
8158.20020 0.0892
8164.20020 0.0881
8170.29980 0.0875
8176.29980 0.0859
8182.29980 0.0847
8188.29980 0.0843
8194.29980 0.0831
8200.29980 0.0817
8206.29980 0.0811
8212.29980 0.0804
8218.29980 0.0783
8224.29980 0.0782
8230.29980 0.0776
8236.29980 0.0766
8242.29980 0.0755
8248.29980 0.0751
8254.29980 0.0738
8260.40039 0.0723
8266.40039 0.0722
8272.40039 0.0711
8278.40039 0.0705
8284.40039 0.0696
8290.40039 0.0686
8296.40039 0.0677
8302.40039 0.0671
8308.40039 0.0666
8314.40039 0.0655
8320.40039 0.0645
8326.40039 0.0639
8332.40039 0.0631
8338.40039 0.0625
8344.40039 0.0611
8350.50000 0.0606
8356.50000 0.0603
8362.50000 0.0592
8368.50000 0.0587
8374.50000 0.0578
8380.50000 0.0571
8386.50000 0.0564
8392.50000 0.0559
8398.50000 0.0552
8404.50000 0.055
8410.50000 0.0539
8416.50000 0.0532
8422.50000 0.0522
8428.50000 0.0513
8434.50000 0.0502
8440.59961 0.0499
8446.59961 0.0493
8452.59961 0.0491
8458.59961 0.048
8464.59961 0.0472
8470.59961 0.0465
8476.59961 0.0462
8482.59961 0.0461
8488.59961 0.0458
8494.59961 0.0449
8500.59961 0.0439
8506.59961 0.0433
8512.59961 0.0433
8518.59961 0.0423
8524.59961 0.0423
8530.70020 0.0421
8536.70020 0.0412
8542.70020 0.0406
8548.70020 0.04
8554.70020 0.0399
8560.70020 0.039
8566.70020 0.0382
8572.70020 0.0379
8578.70020 0.0378
8584.70020 0.0366
8590.70020 0.0358
8596.70020 0.0356
8602.70020 0.0352
8608.70020 0.0343
8614.70020 0.0347
8620.79980 0.034
8626.79980 0.0338
8632.79980 0.0338
8638.79980 0.033
8644.79980 0.032
8650.79980 0.0317
8656.79980 0.0315
8662.79980 0.0311
8668.79980 0.0308
8674.79980 0.0298
8680.79980 0.0294
8686.79980 0.0293
8692.79980 0.0286
8698.79980 0.0285
8704.79980 0.0289
8710.90039 0.0274
8716.90039 0.0263
8722.90039 0.0266
8728.90039 0.026
8734.90039 0.0259
8740.90039 0.026
8746.90039 0.0255
8752.90039 0.0256
8758.90039 0.0257
8764.90039 0.0247
8770.90039 0.0243
8776.90039 0.024
8782.90039 0.0238
8788.90039 0.0238
8794.90039 0.0236
8801.00000 0.0225
8807.00000 0.0227
8813.00000 0.023
8819.00000 0.0225
8825.00000 0.022
8831.00000 0.0217
8837.00000 0.0213
8843.00000 0.0209
8849.00000 0.0207
8855.00000 0.0205
8861.00000 0.0205
8867.00000 0.0199
8873.00000 0.0189
8879.00000 0.019
8885.00000 0.0185
8891.09961 0.0188
8897.09961 0.0182
8903.09961 0.018
8909.09961 0.0173
8915.09961 0.0174
8921.09961 0.0175
8927.09961 0.0171
8933.09961 0.0172
8939.09961 0.017
8945.09961 0.0165
8951.09961 0.0167
8957.09961 0.0159
8963.09961 0.0157
8969.09961 0.0157
8975.09961 0.0152
8981.20020 0.0154
8987.20020 0.0156
8993.20020 0.0155
8999.20020 0.0147
9005.20020 0.015
9011.20020 0.0152
9017.20020 0.0148
9023.20020 0.0142
9029.20020 0.013
9035.20020 0.0133
9041.20020 0.0134
9047.20020 0.0135
9053.20020 0.0131
9059.20020 0.0125
9065.20020 0.012
9071.29980 0.0118
9077.29980 0.0117
9083.29980 0.0128
9089.29980 0.0125
9095.29980 0.0118
9101.29980 0.0118
9107.29980 0.0119
9113.29980 0.0118
9119.29980 0.0118
9125.29980 0.0114
9131.29980 0.0108
9137.29980 0.0106
9143.29980 0.0105
9149.29980 0.0108
9155.29980 0.011
9161.40039 0.0111
9167.40039 0.0107
9173.40039 0.0101
9179.40039 0.0095
9185.40039 0.0102
9191.40039 0.0097
9197.40039 0.0093
9203.40039 0.009
9209.40039 0.0093
9215.40039 0.0096
9221.40039 0.0096
9227.40039 0.0097
9233.40039 0.0091
9239.40039 0.0097
9245.40039 0.0088
9251.40039 0.0088
9257.50000 0.0082
9263.50000 0.0082
9269.50000 0.0093
9275.50000 0.0084
9281.50000 0.0083
9287.50000 0.0084
9293.50000 0.0079
9299.50000 0.008
9305.50000 0.009
9311.50000 0.0084
9317.50000 0.0079
9323.50000 0.008
9329.50000 0.0077
9335.50000 0.0078
9341.50000 0.0072
9347.59961 0.0077
9353.59961 0.0076
9359.59961 0.008
9365.59961 0.0076
9371.59961 0.0079
9377.59961 0.0075
9383.59961 0.0068
9389.59961 0.0063
9395.59961 0.0049
9401.59961 0.0065
9407.59961 0.0053
9413.59961 0.0061
9419.59961 0.0049
9425.59961 0.004
9431.59961 0.005
10374.75977 0.0
