# %ECSV 0.9
# ---
# datatype:
# - {name: wavelength, unit: Angstrom, datatype: float32}
# - {name: response, datatype: float32}
# meta: !!omap
# - {band_name: sloan_g}
# - {group_name: IMACS}
wavelength response
3540.60010 0.0
3934.00000 0.0137
3936.00000 0.0143
3938.00000 0.0142
3939.00000 0.0152
3941.00000 0.0163
3942.00000 0.0173
3944.00000 0.0175
3946.00000 0.0191
3947.00000 0.0186
3949.00000 0.0192
3950.00000 0.0206
3952.00000 0.0216
3954.00000 0.0227
3955.00000 0.0228
3957.00000 0.0229
3958.00000 0.023
3960.00000 0.0233
3962.00000 0.024
3963.00000 0.0235
3965.00000 0.0252
3966.00000 0.0256
3968.00000 0.0256
3970.00000 0.0273
3971.00000 0.0282
3973.00000 0.03
3974.00000 0.0325
3976.00000 0.0357
3978.00000 0.0392
3979.00000 0.0431
3981.00000 0.0476
3982.00000 0.0522
3984.00000 0.0578
3985.00000 0.0648
3987.00000 0.0723
3989.00000 0.0815
3990.00000 0.0918
3992.00000 0.1035
3993.00000 0.1156
3995.00000 0.1292
3997.00000 0.1459
3998.00000 0.1646
4000.00000 0.1849
4001.00000 0.2071
4003.00000 0.2307
4005.00000 0.255
4006.00000 0.281
4008.00000 0.3082
4009.00000 0.3369
4011.00000 0.3651
4013.00000 0.3931
4014.00000 0.4199
4016.00000 0.4495
4017.00000 0.4762
4019.00000 0.5008
4020.00000 0.5224
4022.00000 0.543
4024.00000 0.5615
4025.00000 0.5782
4027.00000 0.5916
4028.00000 0.6045
4030.00000 0.6149
4032.00000 0.6229
4033.00000 0.6296
4035.00000 0.6353
4036.00000 0.6394
4038.00000 0.6423
4039.00000 0.645
4041.00000 0.6461
4043.00000 0.6477
4044.00000 0.649
4046.00000 0.6497
4047.00000 0.6501
4049.00000 0.6504
4051.00000 0.6507
4052.00000 0.6507
4054.00000 0.6509
4055.00000 0.6515
4057.00000 0.652
4058.00000 0.6524
4060.00000 0.6527
4062.00000 0.6534
4063.00000 0.6538
4065.00000 0.654
4066.00000 0.6545
4068.00000 0.6551
4070.00000 0.6559
4071.00000 0.6567
4073.00000 0.657
4074.00000 0.6575
4076.00000 0.6591
4077.00000 0.6602
4079.00000 0.661
4081.00000 0.6623
4082.00000 0.6637
4084.00000 0.6649
4085.00000 0.6659
4087.00000 0.6665
4089.00000 0.6678
4090.00000 0.669
4092.00000 0.6705
4093.00000 0.671
4095.00000 0.6715
4096.00000 0.6725
4098.00000 0.6728
4100.00000 0.6736
4101.00000 0.6748
4103.00000 0.6758
4104.00000 0.6773
4106.00000 0.6776
4107.00000 0.6777
4109.00000 0.6779
4111.00000 0.6785
4112.00000 0.6794
4114.00000 0.6796
4115.00000 0.6799
4117.00000 0.6807
4118.00000 0.6811
4120.00000 0.6815
4122.00000 0.6819
4123.00000 0.6826
4125.00000 0.6841
4126.00000 0.6851
4128.00000 0.6854
4129.00000 0.6858
4131.00000 0.6869
4133.00000 0.6877
4134.00000 0.6879
4136.00000 0.6881
4137.00000 0.6892
4139.00000 0.6904
4140.00000 0.691
4142.00000 0.6913
4144.00000 0.6922
4145.00000 0.6931
4147.00000 0.6937
4148.00000 0.6939
4150.00000 0.6945
4151.00000 0.6955
4153.00000 0.6965
4155.00000 0.6971
4156.00000 0.6966
4158.00000 0.6974
4159.00000 0.6976
4161.00000 0.6981
4162.00000 0.6983
4164.00000 0.699
4166.00000 0.6997
4167.00000 0.7009
4169.00000 0.7017
4170.00000 0.7021
4172.00000 0.7025
4173.00000 0.7035
4175.00000 0.7039
4177.00000 0.7043
4178.00000 0.7048
4180.00000 0.7055
4181.00000 0.7064
4183.00000 0.7071
4184.00000 0.707
4186.00000 0.7071
4187.00000 0.7078
4189.00000 0.7085
4191.00000 0.7093
4192.00000 0.7098
4194.00000 0.7102
4195.00000 0.7103
4197.00000 0.7107
4198.00000 0.7109
4200.00000 0.7112
4202.00000 0.7114
4203.00000 0.7118
4205.00000 0.7122
4206.00000 0.7125
4208.00000 0.7129
4209.00000 0.7133
4211.00000 0.7141
4213.00000 0.7144
4214.00000 0.7147
4216.00000 0.7153
4217.00000 0.7157
4219.00000 0.7162
4220.00000 0.7167
4222.00000 0.7172
4223.00000 0.7183
4225.00000 0.7187
4227.00000 0.7196
4228.00000 0.72
4230.00000 0.7208
4231.00000 0.7211
4233.00000 0.7212
4234.00000 0.722
4236.00000 0.7227
4237.00000 0.7232
4239.00000 0.7232
4241.00000 0.7233
4242.00000 0.7237
4244.00000 0.7243
4245.00000 0.7245
4247.00000 0.7258
4248.00000 0.7269
4250.00000 0.7274
4251.00000 0.7273
4253.00000 0.7275
4255.00000 0.728
4256.00000 0.729
4258.00000 0.7295
4259.00000 0.7301
4261.00000 0.7304
4262.00000 0.7315
4264.00000 0.7315
4265.00000 0.7322
4267.00000 0.7333
4269.00000 0.7343
4270.00000 0.735
4272.00000 0.7355
4273.00000 0.7357
4275.00000 0.7361
4276.00000 0.7367
4278.00000 0.7372
4279.00000 0.7373
4281.00000 0.7381
4283.00000 0.7387
4284.00000 0.739
4286.00000 0.7392
4287.00000 0.7398
4289.00000 0.7403
4290.00000 0.7409
4292.00000 0.7417
4293.00000 0.7421
4295.00000 0.7425
4296.00000 0.7433
4298.00000 0.743
4300.00000 0.7433
4301.00000 0.7437
4303.00000 0.7446
4304.00000 0.7454
4306.00000 0.746
4307.00000 0.7465
4309.00000 0.7471
4310.00000 0.7479
4312.00000 0.7487
4314.00000 0.7492
4315.00000 0.7503
4317.00000 0.7512
4318.00000 0.7516
4320.00000 0.7521
4321.00000 0.7531
4323.00000 0.7534
4324.00000 0.7537
4326.00000 0.7542
4327.00000 0.7544
4329.00000 0.7546
4331.00000 0.7548
4332.00000 0.7553
4334.00000 0.756
4335.00000 0.7572
4337.00000 0.7577
4338.00000 0.7578
4340.00000 0.7592
4341.00000 0.7603
4343.00000 0.7609
4344.00000 0.7617
4346.00000 0.7622
4347.00000 0.7627
4349.00000 0.7632
4351.00000 0.7636
4352.00000 0.7639
4354.00000 0.7645
4355.00000 0.7648
4357.00000 0.7652
4358.00000 0.7659
4360.00000 0.766
4361.00000 0.7667
4363.00000 0.7674
4364.00000 0.7684
4366.00000 0.7687
4368.00000 0.7691
4369.00000 0.7696
4371.00000 0.77
4372.00000 0.771
4374.00000 0.7715
4375.00000 0.7719
4377.00000 0.7726
4378.00000 0.7729
4380.00000 0.7733
4381.00000 0.774
4383.00000 0.7746
4384.00000 0.7747
4386.00000 0.775
4388.00000 0.7756
4389.00000 0.775
4391.00000 0.7751
4392.00000 0.7753
4394.00000 0.7757
4395.00000 0.776
4397.00000 0.7765
4398.00000 0.7764
4400.00000 0.7767
4401.00000 0.7773
4403.00000 0.778
4404.00000 0.7782
4406.00000 0.7788
4407.00000 0.7792
4409.00000 0.7795
4411.00000 0.78
4412.00000 0.7809
4414.00000 0.7814
4415.00000 0.7819
4417.00000 0.7823
4418.00000 0.7826
4420.00000 0.783
4421.00000 0.7839
4423.00000 0.7845
4424.00000 0.7851
4426.00000 0.7857
4427.00000 0.7861
4429.00000 0.7858
4430.00000 0.7861
4432.00000 0.7866
4434.00000 0.7873
4435.00000 0.7878
4437.00000 0.7881
4438.00000 0.788
4440.00000 0.7882
4441.00000 0.7886
4443.00000 0.789
4444.00000 0.7893
4446.00000 0.7896
4447.00000 0.79
4449.00000 0.7906
4450.00000 0.7909
4452.00000 0.7913
4453.00000 0.7916
4455.00000 0.7921
4456.00000 0.793
4458.00000 0.7933
4459.00000 0.7937
4461.00000 0.7941
4463.00000 0.7949
4464.00000 0.7951
4466.00000 0.7956
4467.00000 0.7962
4469.00000 0.7971
4470.00000 0.7978
4472.00000 0.7983
4473.00000 0.7989
4475.00000 0.7993
4476.00000 0.7996
4478.00000 0.8003
4479.00000 0.8005
4481.00000 0.8013
4482.00000 0.8018
4484.00000 0.802
4485.00000 0.802
4487.00000 0.8024
4488.00000 0.8028
4490.00000 0.8028
4491.00000 0.8033
4493.00000 0.8035
4495.00000 0.8038
4496.00000 0.8042
4498.00000 0.8041
4499.00000 0.8039
4501.00000 0.8043
4502.00000 0.8044
4504.00000 0.8048
4505.00000 0.8051
4507.00000 0.8058
4508.00000 0.8061
4510.00000 0.8068
4511.00000 0.8072
4513.00000 0.8075
4514.00000 0.8082
4516.00000 0.8089
4517.00000 0.809
4519.00000 0.8094
4520.00000 0.8095
4522.00000 0.8098
4523.00000 0.8097
4525.00000 0.81
4526.00000 0.8104
4528.00000 0.8108
4529.00000 0.8116
4531.00000 0.8119
4532.00000 0.8125
4534.00000 0.8133
4536.00000 0.814
4537.00000 0.8146
4539.00000 0.8149
4540.00000 0.8157
4542.00000 0.8161
4543.00000 0.8164
4545.00000 0.8166
4546.00000 0.8163
4548.00000 0.8165
4549.00000 0.8164
4551.00000 0.8164
4552.00000 0.8161
4554.00000 0.8162
4555.00000 0.8162
4557.00000 0.816
4558.00000 0.8164
4560.00000 0.8163
4561.00000 0.8169
4563.00000 0.8178
4564.00000 0.8181
4566.00000 0.8185
4567.00000 0.8188
4569.00000 0.8196
4570.00000 0.82
4572.00000 0.8203
4573.00000 0.821
4575.00000 0.8211
4576.00000 0.8217
4578.00000 0.822
4579.00000 0.8222
4581.00000 0.8223
4582.00000 0.8226
4584.00000 0.8229
4585.00000 0.8235
4587.00000 0.8236
4588.00000 0.8242
4590.00000 0.8245
4591.00000 0.8247
4593.00000 0.825
4594.00000 0.8252
4596.00000 0.8251
4597.00000 0.8256
4599.00000 0.8258
4600.00000 0.8256
4602.00000 0.8257
4603.00000 0.8263
4605.00000 0.8265
4606.00000 0.8264
4608.00000 0.8271
4610.00000 0.8271
4611.00000 0.8276
4613.00000 0.8281
4614.00000 0.8286
4616.00000 0.8287
4617.00000 0.8295
4619.00000 0.8299
4620.00000 0.8302
4622.00000 0.8306
4623.00000 0.8312
4625.00000 0.8313
4626.00000 0.8321
4628.00000 0.8322
4629.00000 0.8325
4631.00000 0.8327
4632.00000 0.833
4634.00000 0.8332
4635.00000 0.8335
4637.00000 0.8338
4638.00000 0.8342
4640.00000 0.8344
4641.00000 0.835
4643.00000 0.8357
4644.00000 0.8359
4646.00000 0.8361
4647.00000 0.8365
4649.00000 0.8371
4650.00000 0.8375
4652.00000 0.8375
4653.00000 0.8378
4655.00000 0.8375
4656.00000 0.8379
4658.00000 0.838
4659.00000 0.8376
4661.00000 0.8377
4662.00000 0.838
4664.00000 0.8381
4665.00000 0.8384
4667.00000 0.839
4668.00000 0.8396
4670.00000 0.8397
4671.00000 0.8399
4673.00000 0.8402
4674.00000 0.8404
4675.00000 0.8408
4677.00000 0.8413
4678.00000 0.8416
4680.00000 0.842
4681.00000 0.842
4683.00000 0.8422
4684.00000 0.8426
4686.00000 0.843
4687.00000 0.8435
4689.00000 0.8439
4690.00000 0.8443
4692.00000 0.8447
4693.00000 0.8448
4695.00000 0.8452
4696.00000 0.8455
4698.00000 0.8459
4699.00000 0.8461
4701.00000 0.8464
4702.00000 0.8469
4704.00000 0.8475
4705.00000 0.848
4707.00000 0.8483
4708.00000 0.849
4710.00000 0.8494
4711.00000 0.8497
4713.00000 0.85
4714.00000 0.8502
4716.00000 0.8505
4717.00000 0.8507
4719.00000 0.8509
4720.00000 0.8511
4722.00000 0.8516
4723.00000 0.8517
4725.00000 0.8518
4726.00000 0.8524
4728.00000 0.8527
4729.00000 0.8533
4731.00000 0.8536
4732.00000 0.8539
4734.00000 0.854
4735.00000 0.8542
4737.00000 0.8545
4738.00000 0.8544
4740.00000 0.8548
4741.00000 0.8547
4743.00000 0.8548
4744.00000 0.8553
4746.00000 0.8553
4747.00000 0.8554
4748.00000 0.856
4750.00000 0.8565
4751.00000 0.8568
4753.00000 0.8571
4754.00000 0.8572
4756.00000 0.8576
4757.00000 0.858
4759.00000 0.8584
4760.00000 0.859
4762.00000 0.8594
4763.00000 0.86
4765.00000 0.8599
4766.00000 0.86
4768.00000 0.8602
4769.00000 0.8603
4771.00000 0.8607
4772.00000 0.8609
4774.00000 0.8612
4775.00000 0.8613
4777.00000 0.8615
4778.00000 0.8617
4780.00000 0.8618
4781.00000 0.8621
4783.00000 0.8625
4784.00000 0.8629
4786.00000 0.8633
4787.00000 0.8633
4788.00000 0.8634
4790.00000 0.8637
4791.00000 0.8638
4793.00000 0.8637
4794.00000 0.8637
4796.00000 0.8643
4797.00000 0.8646
4799.00000 0.8647
4800.00000 0.8652
4802.00000 0.8651
4803.00000 0.8653
4805.00000 0.8656
4806.00000 0.8658
4808.00000 0.8664
4809.00000 0.8665
4811.00000 0.8669
4812.00000 0.867
4814.00000 0.8672
4815.00000 0.8674
4817.00000 0.8674
4818.00000 0.868
4819.00000 0.8686
4821.00000 0.8689
4822.00000 0.8688
4824.00000 0.8688
4825.00000 0.8692
4827.00000 0.8693
4828.00000 0.8692
4830.00000 0.8692
4831.00000 0.8692
4833.00000 0.8694
4834.00000 0.869
4836.00000 0.8688
4837.00000 0.8689
4839.00000 0.8691
4840.00000 0.8694
4842.00000 0.869
4843.00000 0.8693
4845.00000 0.8696
4846.00000 0.8696
4847.00000 0.8698
4849.00000 0.8698
4850.00000 0.8702
4852.00000 0.8706
4853.00000 0.8706
4855.00000 0.8707
4856.00000 0.8706
4858.00000 0.8711
4859.00000 0.8708
4861.00000 0.8711
4862.00000 0.8713
4864.00000 0.8713
4865.00000 0.8712
4867.00000 0.8713
4868.00000 0.8713
4869.00000 0.8715
4871.00000 0.8714
4872.00000 0.8715
4874.00000 0.8713
4875.00000 0.8716
4877.00000 0.8714
4878.00000 0.871
4880.00000 0.8713
4881.00000 0.8716
4883.00000 0.8716
4884.00000 0.8715
4886.00000 0.8716
4887.00000 0.8717
4889.00000 0.8719
4890.00000 0.8721
4891.00000 0.872
4893.00000 0.8719
4894.00000 0.8724
4896.00000 0.8722
4897.00000 0.872
4899.00000 0.8722
4900.00000 0.8722
4902.00000 0.872
4903.00000 0.8722
4905.00000 0.8719
4906.00000 0.8718
4908.00000 0.8719
4909.00000 0.8719
4910.00000 0.8715
4912.00000 0.8714
4913.00000 0.8714
4915.00000 0.8708
4916.00000 0.8707
4918.00000 0.8708
4919.00000 0.8707
4921.00000 0.8707
4922.00000 0.8704
4924.00000 0.8702
4925.00000 0.8702
4927.00000 0.8701
4928.00000 0.8699
4929.00000 0.8698
4931.00000 0.8697
4932.00000 0.8694
4934.00000 0.8695
4935.00000 0.8692
4937.00000 0.8689
4938.00000 0.8689
4940.00000 0.8689
4941.00000 0.8685
4943.00000 0.8688
4944.00000 0.8689
4945.00000 0.869
4947.00000 0.8693
4948.00000 0.8696
4950.00000 0.8695
4951.00000 0.8697
4953.00000 0.8698
4954.00000 0.87
4956.00000 0.8698
4957.00000 0.87
4959.00000 0.8696
4960.00000 0.8693
4961.00000 0.8692
4963.00000 0.8689
4964.00000 0.8688
4966.00000 0.8686
4967.00000 0.8686
4969.00000 0.8684
4970.00000 0.8684
4972.00000 0.8688
4973.00000 0.8687
4975.00000 0.8688
4976.00000 0.8687
4977.00000 0.8684
4979.00000 0.8688
4980.00000 0.8688
4982.00000 0.869
4983.00000 0.8689
4985.00000 0.8693
4986.00000 0.8694
4988.00000 0.8696
4989.00000 0.8698
4990.00000 0.8702
4992.00000 0.8708
4993.00000 0.8711
4995.00000 0.8709
4996.00000 0.8712
4998.00000 0.8713
4999.00000 0.8712
5001.00000 0.871
5002.00000 0.871
5003.00000 0.8704
5005.00000 0.8705
5006.00000 0.87
5008.00000 0.8696
5009.00000 0.8696
5011.00000 0.8697
5012.00000 0.8693
5014.00000 0.8692
5015.00000 0.8692
5017.00000 0.8692
5018.00000 0.8688
5019.00000 0.8693
5021.00000 0.8695
5022.00000 0.8697
5024.00000 0.8698
5025.00000 0.8699
5027.00000 0.8695
5028.00000 0.8697
5029.00000 0.8697
5031.00000 0.8699
5032.00000 0.87
5034.00000 0.8703
5035.00000 0.8695
5037.00000 0.8694
5038.00000 0.8691
5040.00000 0.8695
5041.00000 0.8696
5042.00000 0.8699
5044.00000 0.8698
5045.00000 0.8696
5047.00000 0.8694
5048.00000 0.8697
5050.00000 0.8694
5051.00000 0.8701
5053.00000 0.8702
5054.00000 0.8702
5055.00000 0.8698
5057.00000 0.8696
5058.00000 0.8692
5060.00000 0.8693
5061.00000 0.8694
5063.00000 0.8693
5064.00000 0.8689
5065.00000 0.8688
5067.00000 0.8682
5068.00000 0.8685
5070.00000 0.8681
5071.00000 0.8681
5073.00000 0.8679
5074.00000 0.868
5076.00000 0.8676
5077.00000 0.8674
5078.00000 0.8674
5080.00000 0.8671
5081.00000 0.8669
5083.00000 0.8674
5084.00000 0.8667
5086.00000 0.867
5087.00000 0.8665
5088.00000 0.8664
5090.00000 0.866
5091.00000 0.866
5093.00000 0.8659
5094.00000 0.8658
5096.00000 0.866
5097.00000 0.8661
5098.00000 0.8657
5100.00000 0.8657
5101.00000 0.8654
5103.00000 0.8654
5104.00000 0.865
5106.00000 0.8651
5107.00000 0.8647
5109.00000 0.8647
5110.00000 0.8641
5111.00000 0.8637
5113.00000 0.8635
5114.00000 0.8631
5116.00000 0.8626
5117.00000 0.8624
5119.00000 0.8624
5120.00000 0.8623
5121.00000 0.862
5123.00000 0.862
5124.00000 0.8617
5126.00000 0.8617
5127.00000 0.8617
5129.00000 0.8612
5130.00000 0.8611
5131.00000 0.8608
5133.00000 0.8605
5134.00000 0.8599
5136.00000 0.8596
5137.00000 0.8591
5139.00000 0.8584
5140.00000 0.858
5141.00000 0.8574
5143.00000 0.8569
5144.00000 0.857
5146.00000 0.8562
5147.00000 0.8559
5148.00000 0.8556
5150.00000 0.8551
5151.00000 0.8548
5153.00000 0.8539
5154.00000 0.8538
5156.00000 0.8529
5157.00000 0.8528
5158.00000 0.852
5160.00000 0.8511
5161.00000 0.8509
5163.00000 0.8503
5164.00000 0.8498
5166.00000 0.8496
5167.00000 0.8491
5168.00000 0.8492
5170.00000 0.8487
5171.00000 0.8487
5173.00000 0.8479
5174.00000 0.8474
5176.00000 0.847
5177.00000 0.8467
5178.00000 0.8462
5180.00000 0.8458
5181.00000 0.8453
5183.00000 0.8449
5184.00000 0.8441
5185.00000 0.8433
5187.00000 0.8427
5188.00000 0.8424
5190.00000 0.8418
5191.00000 0.8409
5193.00000 0.84
5194.00000 0.8397
5195.00000 0.8387
5197.00000 0.838
5198.00000 0.837
5200.00000 0.8368
5201.00000 0.8364
5202.00000 0.8356
5204.00000 0.8347
5205.00000 0.8344
5207.00000 0.8341
5208.00000 0.834
5210.00000 0.8335
5211.00000 0.833
5212.00000 0.8327
5214.00000 0.8327
5215.00000 0.832
5217.00000 0.8312
5218.00000 0.8304
5219.00000 0.8298
5221.00000 0.8289
5222.00000 0.828
5224.00000 0.8268
5225.00000 0.8257
5227.00000 0.8244
5228.00000 0.8237
5229.00000 0.8221
5231.00000 0.8214
5232.00000 0.8206
5234.00000 0.8202
5235.00000 0.8194
5236.00000 0.819
5238.00000 0.8183
5239.00000 0.818
5241.00000 0.8173
5242.00000 0.817
5243.00000 0.8164
5245.00000 0.816
5246.00000 0.8157
5248.00000 0.8154
5249.00000 0.8146
5250.00000 0.8139
5252.00000 0.8127
5253.00000 0.8118
5255.00000 0.8108
5256.00000 0.8101
5258.00000 0.8092
5259.00000 0.8081
5260.00000 0.807
5262.00000 0.8056
5263.00000 0.8045
5265.00000 0.8046
5266.00000 0.8037
5267.00000 0.8033
5269.00000 0.8028
5270.00000 0.8022
5272.00000 0.8015
5273.00000 0.8011
5274.00000 0.8003
5276.00000 0.8001
5277.00000 0.7996
5279.00000 0.7989
5280.00000 0.797
5281.00000 0.796
5283.00000 0.7955
5284.00000 0.7951
5286.00000 0.7941
5287.00000 0.7932
5288.00000 0.792
5290.00000 0.7909
5291.00000 0.79
5293.00000 0.7893
5294.00000 0.7884
5295.00000 0.7883
5297.00000 0.788
5298.00000 0.7867
5300.00000 0.7854
5301.00000 0.7844
5302.00000 0.7839
5304.00000 0.7833
5305.00000 0.7824
5307.00000 0.7819
5308.00000 0.7811
5309.00000 0.7805
5311.00000 0.7789
5312.00000 0.7774
5314.00000 0.7759
5315.00000 0.7748
5316.00000 0.7742
5318.00000 0.773
5319.00000 0.7723
5321.00000 0.7717
5322.00000 0.7701
5323.00000 0.7693
5325.00000 0.7681
5326.00000 0.7672
5328.00000 0.7667
5329.00000 0.766
5330.00000 0.7649
5332.00000 0.7639
5333.00000 0.7633
5335.00000 0.7624
5336.00000 0.7614
5337.00000 0.76
5339.00000 0.7588
5340.00000 0.7575
5342.00000 0.757
5343.00000 0.7564
5344.00000 0.7563
5346.00000 0.7553
5347.00000 0.7542
5349.00000 0.7528
5350.00000 0.7514
5351.00000 0.7504
5353.00000 0.7502
5354.00000 0.7486
5356.00000 0.7478
5357.00000 0.7463
5358.00000 0.745
5360.00000 0.7438
5361.00000 0.7431
5363.00000 0.7423
5364.00000 0.7416
5365.00000 0.7406
5367.00000 0.7398
5368.00000 0.7388
5369.00000 0.7382
5371.00000 0.7368
5372.00000 0.7363
5374.00000 0.7355
5375.00000 0.7343
5376.00000 0.7332
5378.00000 0.7318
5379.00000 0.7303
5381.00000 0.7286
5382.00000 0.727
5383.00000 0.7255
5385.00000 0.7244
5386.00000 0.7235
5388.00000 0.7226
5389.00000 0.7217
5390.00000 0.7203
5392.00000 0.7189
5393.00000 0.7175
5394.00000 0.7168
5396.00000 0.7165
5397.00000 0.7164
5399.00000 0.7153
5400.00000 0.7142
5401.00000 0.7137
5403.00000 0.7121
5404.00000 0.7102
5406.00000 0.7098
5407.00000 0.7086
5408.00000 0.7082
5410.00000 0.7063
5411.00000 0.7049
5412.00000 0.7028
5414.00000 0.7012
5415.00000 0.7
5417.00000 0.6987
5418.00000 0.6974
5419.00000 0.6961
5421.00000 0.6942
5422.00000 0.6934
5424.00000 0.6917
5425.00000 0.6909
5426.00000 0.6896
5428.00000 0.6884
5429.00000 0.6871
5430.00000 0.6849
5432.00000 0.6831
5433.00000 0.681
5435.00000 0.6798
5436.00000 0.678
5437.00000 0.6753
5439.00000 0.6729
5440.00000 0.671
5441.00000 0.6688
5443.00000 0.6665
5444.00000 0.6642
5446.00000 0.6626
5447.00000 0.659
5448.00000 0.6569
5450.00000 0.6535
5451.00000 0.6502
5453.00000 0.6473
5454.00000 0.6447
5455.00000 0.6407
5457.00000 0.6367
5458.00000 0.6336
5459.00000 0.6307
5461.00000 0.6263
5462.00000 0.6224
5464.00000 0.6178
5465.00000 0.6134
5466.00000 0.6084
5468.00000 0.6043
5469.00000 0.5994
5470.00000 0.5944
5472.00000 0.5894
5473.00000 0.5828
5475.00000 0.5765
5476.00000 0.5702
5477.00000 0.5638
5479.00000 0.557
5480.00000 0.55
5481.00000 0.5427
5483.00000 0.5347
5484.00000 0.526
5485.00000 0.5179
5487.00000 0.5097
5488.00000 0.5018
5490.00000 0.4931
5491.00000 0.4841
5492.00000 0.4757
5494.00000 0.4666
5495.00000 0.4572
5496.00000 0.4481
5498.00000 0.4388
5499.00000 0.4305
5501.00000 0.421
5502.00000 0.4109
5503.00000 0.4013
5505.00000 0.3902
5506.00000 0.3807
5507.00000 0.3705
5509.00000 0.3605
5510.00000 0.3503
5512.00000 0.3398
5513.00000 0.3298
5514.00000 0.3193
5516.00000 0.3092
5517.00000 0.3005
5518.00000 0.2913
5520.00000 0.2831
5521.00000 0.2745
5522.00000 0.2655
5524.00000 0.2557
5525.00000 0.2474
5527.00000 0.2403
5528.00000 0.2315
5529.00000 0.224
5531.00000 0.2172
5532.00000 0.2083
5533.00000 0.2002
5535.00000 0.1924
5536.00000 0.1841
5537.00000 0.1779
5539.00000 0.1736
5540.00000 0.1655
5542.00000 0.159
5543.00000 0.1529
5544.00000 0.1469
5546.00000 0.1412
5547.00000 0.1362
5548.00000 0.1315
5550.00000 0.1268
5551.00000 0.1212
5552.00000 0.1154
5554.00000 0.1104
5555.00000 0.1073
5557.00000 0.104
5558.00000 0.1014
5559.00000 0.097
5561.00000 0.0927
5562.00000 0.0908
5563.00000 0.0864
5565.00000 0.0832
5566.00000 0.08
5567.00000 0.0768
5569.00000 0.0729
5570.00000 0.0709
5572.00000 0.0668
5573.00000 0.0631
5574.00000 0.062
5576.00000 0.0599
5577.00000 0.0563
5578.00000 0.0561
5580.00000 0.0557
5581.00000 0.0555
5582.00000 0.0535
5584.00000 0.0509
5585.00000 0.047
5586.00000 0.0446
5588.00000 0.043
5589.00000 0.0393
5591.00000 0.0378
5592.00000 0.0337
5593.00000 0.0311
5595.00000 0.0264
5596.00000 0.0224
5597.00000 0.0213
5599.00000 0.0208
5600.00000 0.0213
5601.00000 0.0213
5603.00000 0.0209
5604.00000 0.02
5605.00000 0.0181
5607.00000 0.0189
5608.00000 0.0169
5609.00000 0.0176
5611.00000 0.0199
5612.00000 0.018
5614.00000 0.0175
5615.00000 0.0169
5616.00000 0.0167
5618.00000 0.0154
6179.79980 0.0
