# %ECSV 0.9
# ---
# datatype:
# - {name: wavelength, unit: Angstrom, datatype: float32}
# - {name: response, datatype: float32}
# meta: !!omap
# - {band_name: sdss_z}
# - {group_name: MagIC}
wavelength response
7020.00000 0.0
7800.00000 1e-05
7803.00000 1e-05
7806.00000 0.0
7809.00000 1e-05
7812.00000 1e-05
7815.00000 3e-05
7818.00000 3e-05
7821.00000 2e-05
7824.00000 1e-05
7827.00000 2e-05
7830.00000 2e-05
7833.00000 1e-05
7836.00000 3e-05
7839.00000 1e-05
7842.00000 1e-05
7845.00000 2e-05
7848.00000 2e-05
7851.00000 3e-05
7854.00000 2e-05
7857.00000 3e-05
7860.00000 3e-05
7863.00000 2e-05
7866.00000 3e-05
7869.00000 3e-05
7872.00000 3e-05
7875.00000 3e-05
7878.00000 3e-05
7881.00000 3e-05
7884.00000 3e-05
7887.00000 4e-05
7890.00000 3e-05
7893.00000 4e-05
7896.00000 5e-05
7899.00000 4e-05
7902.00000 5e-05
7905.00000 4e-05
7908.00000 5e-05
7911.00000 6e-05
7914.00000 5e-05
7917.00000 5e-05
7920.00000 4e-05
7923.00000 9e-05
7926.00000 4e-05
7929.00000 6e-05
7932.00000 7e-05
7935.00000 7e-05
7938.00000 7e-05
7941.00000 6e-05
7944.00000 9e-05
7947.00000 8e-05
7950.00000 8e-05
7953.00000 9e-05
7956.00000 9e-05
7959.00000 9e-05
7962.00000 0.0001
7965.00000 9e-05
7968.00000 0.00011
7971.00000 0.00011
7974.00000 0.00011
7977.00000 0.00013
7980.00000 0.00012
7983.00000 0.00012
7986.00000 0.00014
7989.00000 0.00014
7992.00000 0.00015
7995.00000 0.00015
7998.00000 0.00017
8001.00000 0.00016
8004.00000 0.00018
8007.00000 0.00019
8010.00000 0.00019
8013.00000 0.00021
8016.00000 0.00022
8019.00000 0.00023
8022.00000 0.00024
8025.00000 0.00026
8028.00000 0.00026
8031.00000 0.00028
8034.00000 0.00028
8037.00000 0.0003
8040.00000 0.00033
8043.00000 0.00034
8046.00000 0.00036
8049.00000 0.00037
8052.00000 0.00039
8055.00000 0.00041
8058.00000 0.00043
8061.00000 0.00045
8064.00000 0.00047
8067.00000 0.00049
8070.00000 0.00052
8073.00000 0.00054
8076.00000 0.00059
8079.00000 0.00061
8082.00000 0.00063
8085.00000 0.00068
8088.00000 0.0007
8091.00000 0.00072
8094.00000 0.00079
8097.00000 0.00082
8100.00000 0.00087
8103.00000 0.00092
8106.00000 0.00097
8109.00000 0.00105
8112.00000 0.0011
8115.00000 0.00115
8118.00000 0.00122
8121.00000 0.00129
8124.00000 0.00134
8127.00000 0.00146
8130.00000 0.00151
8133.00000 0.00163
8136.00000 0.00171
8139.00000 0.0018
8142.00000 0.00193
8145.00000 0.00205
8148.00000 0.00218
8151.00000 0.00229
8154.00000 0.00243
8157.00000 0.00259
8160.00000 0.00273
8163.00000 0.00289
8166.00000 0.00308
8169.00000 0.00327
8172.00000 0.00348
8175.00000 0.0037
8178.00000 0.00395
8181.00000 0.00419
8184.00000 0.00443
8187.00000 0.00476
8190.00000 0.00509
8193.00000 0.0054
8196.00000 0.00575
8199.00000 0.0061
8202.00000 0.0065
8205.00000 0.00698
8208.00000 0.00748
8211.00000 0.00798
8214.00000 0.0085
8217.00000 0.00908
8220.00000 0.00975
8223.00000 0.01041
8226.00000 0.01114
8229.00000 0.01189
8232.00000 0.01281
8235.00000 0.01379
8238.00000 0.01476
8241.00000 0.0158
8244.00000 0.01706
8247.00000 0.01833
8250.00000 0.01963
8253.00000 0.02118
8256.00000 0.02282
8259.00000 0.02454
8262.00000 0.0265
8265.00000 0.02853
8268.00000 0.03086
8271.00000 0.03314
8274.00000 0.03582
8277.00000 0.03857
8280.00000 0.04156
8283.00000 0.0449
8286.00000 0.04861
8289.00000 0.05245
8292.00000 0.05662
8295.00000 0.06132
8298.00000 0.06632
8301.00000 0.07187
8304.00000 0.07776
8307.00000 0.08416
8310.00000 0.09123
8313.00000 0.09932
8316.00000 0.10723
8319.00000 0.11627
8322.00000 0.12587
8325.00000 0.13698
8328.00000 0.14841
8331.00000 0.16087
8334.00000 0.17449
8337.00000 0.18867
8340.00000 0.20536
8343.00000 0.22178
8346.00000 0.24009
8349.00000 0.25915
8352.00000 0.28071
8355.00000 0.30217
8358.00000 0.32524
8361.00000 0.34855
8364.00000 0.37537
8367.00000 0.4018
8370.00000 0.42931
8373.00000 0.45792
8376.00000 0.48673
8379.00000 0.51855
8382.00000 0.54926
8385.00000 0.57966
8388.00000 0.60967
8391.00000 0.6424
8394.00000 0.67107
8397.00000 0.70093
8400.00000 0.72896
8403.00000 0.7552
8406.00000 0.78258
8409.00000 0.8063
8412.00000 0.82878
8415.00000 0.849
8418.00000 0.87099
8421.00000 0.88794
8424.00000 0.90238
8427.00000 0.91723
8430.00000 0.93097
8433.00000 0.9406
8436.00000 0.94856
8439.00000 0.95727
8442.00000 0.96223
8445.00000 0.96782
8448.00000 0.97393
8451.00000 0.97549
8454.00000 0.97914
8457.00000 0.98002
8460.00000 0.98065
8463.00000 0.98236
8466.00000 0.98024
8469.00000 0.98047
8472.00000 0.98028
8475.00000 0.97975
8478.00000 0.98011
8481.00000 0.97677
8484.00000 0.97689
8487.00000 0.97389
8490.00000 0.97287
8493.00000 0.97003
8496.00000 0.96892
8499.00000 0.9693
8502.00000 0.96672
8505.00000 0.96483
8508.00000 0.9646
8511.00000 0.96359
8514.00000 0.96257
8517.00000 0.96226
8520.00000 0.95952
8523.00000 0.95862
8526.00000 0.95663
8529.00000 0.95764
8532.00000 0.95779
8535.00000 0.95755
8538.00000 0.95725
8541.00000 0.95561
8544.00000 0.9543
8547.00000 0.95549
8550.00000 0.95855
8553.00000 0.95875
8556.00000 0.95704
8559.00000 0.95705
8562.00000 0.95928
8565.00000 0.95718
8568.00000 0.95836
8571.00000 0.9595
8574.00000 0.95942
8577.00000 0.96003
8580.00000 0.96083
8583.00000 0.96163
8586.00000 0.9609
8589.00000 0.96166
8592.00000 0.9608
8595.00000 0.96052
8598.00000 0.96132
8601.00000 0.96053
8604.00000 0.96482
8607.00000 0.96409
8610.00000 0.96466
8613.00000 0.9664
8616.00000 0.96645
8619.00000 0.96589
8622.00000 0.96667
8625.00000 0.96614
8628.00000 0.96764
8631.00000 0.9676
8634.00000 0.96883
8637.00000 0.96998
8640.00000 0.96867
8643.00000 0.97065
8646.00000 0.96892
8649.00000 0.97442
8652.00000 0.97109
8655.00000 0.97336
8658.00000 0.97179
8661.00000 0.97345
8664.00000 0.97162
8667.00000 0.97148
8670.00000 0.9745
8673.00000 0.97338
8676.00000 0.97458
8679.00000 0.97492
8682.00000 0.97518
8685.00000 0.97554
8688.00000 0.97597
8691.00000 0.97695
8694.00000 0.97539
8697.00000 0.97563
8700.00000 0.9702
8703.00000 0.97356
8706.00000 0.97375
8709.00000 0.98255
8712.00000 0.97918
8715.00000 0.97968
8718.00000 0.97855
8721.00000 0.97228
8724.00000 0.97155
8727.00000 0.97505
8730.00000 0.97428
8733.00000 0.97887
8736.00000 0.97395
8739.00000 0.97161
8742.00000 0.97677
8745.00000 0.97846
8748.00000 0.97495
8751.00000 0.98069
8754.00000 0.97661
8757.00000 0.98034
8760.00000 0.97487
8763.00000 0.97514
8766.00000 0.98327
8769.00000 0.97661
8772.00000 0.97429
8775.00000 0.97661
8778.00000 0.97574
8781.00000 0.97617
8784.00000 0.97448
8787.00000 0.97582
8790.00000 0.97756
8793.00000 0.96952
8796.00000 0.97067
8799.00000 0.9734
8802.00000 0.97244
8805.00000 0.97232
8808.00000 0.97204
8811.00000 0.97195
8814.00000 0.9706
8817.00000 0.97013
8820.00000 0.96953
8823.00000 0.96856
8826.00000 0.968
8829.00000 0.96721
8832.00000 0.9665
8835.00000 0.96655
8838.00000 0.96599
8841.00000 0.9651
8844.00000 0.9653
8847.00000 0.96456
8850.00000 0.96454
8853.00000 0.96407
8856.00000 0.96332
8859.00000 0.96395
8862.00000 0.96382
8865.00000 0.96433
8868.00000 0.9638
8871.00000 0.96374
8874.00000 0.96412
8877.00000 0.96352
8880.00000 0.96464
8883.00000 0.96313
8886.00000 0.96258
8889.00000 0.96183
8892.00000 0.9621
8895.00000 0.96183
8898.00000 0.96093
8901.00000 0.96074
8904.00000 0.96075
8907.00000 0.96064
8910.00000 0.96069
8913.00000 0.96087
8916.00000 0.96053
8919.00000 0.96127
8922.00000 0.96203
8925.00000 0.96229
8928.00000 0.96242
8931.00000 0.9632
8934.00000 0.96395
8937.00000 0.96431
8940.00000 0.96466
8943.00000 0.96577
8946.00000 0.96598
8949.00000 0.96612
8952.00000 0.9671
8955.00000 0.96689
8958.00000 0.96692
8961.00000 0.9672
8964.00000 0.96688
8967.00000 0.96787
8970.00000 0.96859
8973.00000 0.96838
8976.00000 0.96876
8979.00000 0.96919
8982.00000 0.96982
8985.00000 0.96945
8988.00000 0.97074
8991.00000 0.97131
8994.00000 0.97165
8997.00000 0.97284
9000.00000 0.9731
9003.00000 0.97355
9006.00000 0.97455
9009.00000 0.97525
9012.00000 0.97598
9015.00000 0.97576
9018.00000 0.97608
9021.00000 0.97646
9024.00000 0.97685
9027.00000 0.97636
9030.00000 0.97587
9033.00000 0.97568
9036.00000 0.97602
9039.00000 0.97524
9042.00000 0.97555
9045.00000 0.97544
9048.00000 0.97496
9051.00000 0.97496
9054.00000 0.97444
9057.00000 0.97454
9060.00000 0.97382
9063.00000 0.97337
9066.00000 0.97406
9069.00000 0.97336
9072.00000 0.97358
9075.00000 0.9735
9078.00000 0.97266
9081.00000 0.97219
9084.00000 0.97242
9087.00000 0.97133
9090.00000 0.97166
9093.00000 0.9714
9096.00000 0.97016
9099.00000 0.96861
9102.00000 0.96846
9105.00000 0.96751
9108.00000 0.96686
9111.00000 0.96566
9114.00000 0.96466
9117.00000 0.96491
9120.00000 0.96337
9123.00000 0.96209
9126.00000 0.96226
9129.00000 0.96206
9132.00000 0.96098
9135.00000 0.9602
9138.00000 0.95964
9141.00000 0.95971
9144.00000 0.96033
9147.00000 0.96
9150.00000 0.95949
9153.00000 0.95878
9156.00000 0.95896
9159.00000 0.95937
9162.00000 0.9586
9165.00000 0.9572
9168.00000 0.95789
9171.00000 0.9576
9174.00000 0.95669
9177.00000 0.95654
9180.00000 0.95635
9183.00000 0.95629
9186.00000 0.95649
9189.00000 0.9555
9192.00000 0.95627
9195.00000 0.95615
9198.00000 0.95617
9201.00000 0.95628
9204.00000 0.95698
9207.00000 0.95636
9210.00000 0.95732
9213.00000 0.95825
9216.00000 0.95904
9219.00000 0.96016
9222.00000 0.95984
9225.00000 0.96135
9228.00000 0.96173
9231.00000 0.96172
9234.00000 0.96206
9237.00000 0.96313
9240.00000 0.96329
9243.00000 0.96335
9246.00000 0.96355
9249.00000 0.96368
9252.00000 0.96375
9255.00000 0.96473
9258.00000 0.96518
9261.00000 0.96436
9264.00000 0.9661
9267.00000 0.96511
9270.00000 0.96571
9273.00000 0.96608
9276.00000 0.96649
9279.00000 0.96696
9282.00000 0.96766
9285.00000 0.96781
9288.00000 0.9685
9291.00000 0.96916
9294.00000 0.97024
9297.00000 0.9703
9300.00000 0.97041
9303.00000 0.97023
9306.00000 0.97048
9309.00000 0.96961
9312.00000 0.96977
9315.00000 0.97012
9318.00000 0.96958
9321.00000 0.96863
9324.00000 0.96907
9327.00000 0.9681
9330.00000 0.9683
9333.00000 0.96819
9336.00000 0.96741
9339.00000 0.96722
9342.00000 0.96652
9345.00000 0.96619
9348.00000 0.9663
9351.00000 0.96593
9354.00000 0.96608
9357.00000 0.96628
9360.00000 0.96585
9363.00000 0.96555
9366.00000 0.96573
9369.00000 0.96476
9372.00000 0.96391
9375.00000 0.96417
9378.00000 0.96348
9381.00000 0.96214
9384.00000 0.9624
9387.00000 0.96183
9390.00000 0.96108
9393.00000 0.96062
9396.00000 0.9597
9399.00000 0.9594
9402.00000 0.95938
9405.00000 0.95833
9408.00000 0.9576
9411.00000 0.95807
9414.00000 0.95795
9417.00000 0.95763
9420.00000 0.95833
9423.00000 0.95747
9426.00000 0.95737
9429.00000 0.95846
9432.00000 0.95805
9435.00000 0.95822
9438.00000 0.95819
9441.00000 0.95763
9444.00000 0.95757
9447.00000 0.95764
9450.00000 0.95795
9453.00000 0.95802
9456.00000 0.95766
9459.00000 0.95696
9462.00000 0.95704
9465.00000 0.95715
9468.00000 0.95702
9471.00000 0.95611
9474.00000 0.95629
9477.00000 0.95629
9480.00000 0.95672
9483.00000 0.95657
9486.00000 0.95694
9489.00000 0.95708
9492.00000 0.95755
9495.00000 0.95779
9498.00000 0.95774
9501.00000 0.95736
9504.00000 0.95869
9507.00000 0.95898
9510.00000 0.95863
9513.00000 0.95934
9516.00000 0.9585
9519.00000 0.95886
9522.00000 0.95913
9525.00000 0.95803
9528.00000 0.95754
9531.00000 0.95851
9534.00000 0.9579
9537.00000 0.95799
9540.00000 0.95766
9543.00000 0.95757
9546.00000 0.95738
9549.00000 0.95645
9552.00000 0.95626
9555.00000 0.95643
9558.00000 0.9562
9561.00000 0.95617
9564.00000 0.95627
9567.00000 0.95659
9570.00000 0.95583
9573.00000 0.95547
9576.00000 0.95532
9579.00000 0.95449
9582.00000 0.9537
9585.00000 0.95324
9588.00000 0.95317
9591.00000 0.9526
9594.00000 0.95089
9597.00000 0.94927
9600.00000 0.94826
9603.00000 0.94787
9606.00000 0.94604
9609.00000 0.94483
9612.00000 0.94297
9615.00000 0.94238
9618.00000 0.94028
9621.00000 0.9384
9624.00000 0.93788
9627.00000 0.93592
9630.00000 0.93493
9633.00000 0.9339
9636.00000 0.93147
9639.00000 0.92906
9642.00000 0.92867
9645.00000 0.92694
9648.00000 0.92593
9651.00000 0.92384
9654.00000 0.92257
9657.00000 0.92101
9660.00000 0.92057
9663.00000 0.91923
9666.00000 0.91782
9669.00000 0.91718
9672.00000 0.9164
9675.00000 0.91655
9678.00000 0.91676
9681.00000 0.91673
9684.00000 0.91708
9687.00000 0.91841
9690.00000 0.92088
9693.00000 0.92159
9696.00000 0.92388
9699.00000 0.92683
9702.00000 0.9296
9705.00000 0.93359
9708.00000 0.93699
9711.00000 0.94042
9714.00000 0.94438
9717.00000 0.94795
9720.00000 0.95112
9723.00000 0.95345
9726.00000 0.95542
9729.00000 0.9563
9732.00000 0.95529
9735.00000 0.95237
9738.00000 0.94766
9741.00000 0.94076
9744.00000 0.93055
9747.00000 0.91487
9750.00000 0.89578
9753.00000 0.87602
9756.00000 0.8453
9759.00000 0.81583
9762.00000 0.78643
9765.00000 0.74119
9768.00000 0.69614
9771.00000 0.65959
9774.00000 0.6097
9777.00000 0.55938
9780.00000 0.51758
9783.00000 0.47211
9786.00000 0.42229
9789.00000 0.3809
9792.00000 0.34814
9795.00000 0.30606
9798.00000 0.27363
9801.00000 0.24786
9804.00000 0.2158
9807.00000 0.1909
9810.00000 0.17218
9813.00000 0.15078
9816.00000 0.13244
9819.00000 0.11849
9822.00000 0.1053
9825.00000 0.09227
9828.00000 0.0827
9831.00000 0.07486
9834.00000 0.06556
9837.00000 0.05786
9840.00000 0.05287
9843.00000 0.0471
9846.00000 0.04212
9849.00000 0.03842
9852.00000 0.03466
9855.00000 0.03036
9858.00000 0.02769
9861.00000 0.026
9864.00000 0.02249
9867.00000 0.02098
9870.00000 0.01904
9873.00000 0.01741
9876.00000 0.01586
9879.00000 0.01518
9882.00000 0.01342
9885.00000 0.01288
9888.00000 0.01173
9891.00000 0.01088
9894.00000 0.0102
9897.00000 0.00928
9900.00000 0.00848
9903.00000 0.00793
9906.00000 0.00733
9909.00000 0.00745
9912.00000 0.00678
9915.00000 0.00652
9918.00000 0.00614
9921.00000 0.00617
9924.00000 0.00558
9927.00000 0.00567
9930.00000 0.00543
9933.00000 0.00455
9936.00000 0.00433
9939.00000 0.00448
9942.00000 0.00467
9945.00000 0.00425
9948.00000 0.00389
9951.00000 0.00368
9954.00000 0.00338
9957.00000 0.0034
9960.00000 0.00407
9963.00000 0.00311
9966.00000 0.00342
9969.00000 0.00363
9972.00000 0.00275
9975.00000 0.00351
9978.00000 0.00308
9981.00000 0.00319
9984.00000 0.0025
9987.00000 0.00313
9990.00000 0.00343
9993.00000 0.00344
9996.00000 0.0025
9999.00000 0.00205
10002.00000 0.00236
10005.00000 0.00281
10008.00000 0.00272
10011.00000 0.00291
10014.00000 0.00288
10017.00000 0.00263
10020.00000 0.00317
10023.00000 0.00298
10026.00000 0.00275
10029.00000 0.00243
10032.00000 0.00262
10035.00000 0.0027
10038.00000 0.00265
10041.00000 0.00266
10044.00000 0.00211
10047.00000 0.00254
10050.00000 0.0026
10053.00000 0.00242
10056.00000 0.00274
10059.00000 0.0031
10062.00000 0.00227
10065.00000 0.00287
10068.00000 0.00222
10071.00000 0.00235
10074.00000 0.00254
10077.00000 0.00267
10080.00000 0.00269
10083.00000 0.00248
10086.00000 0.00265
10089.00000 0.00221
10092.00000 0.00254
10095.00000 0.00283
10098.00000 0.0021
10101.00000 0.00251
10104.00000 0.00199
10107.00000 0.00281
10110.00000 0.00238
10113.00000 0.00223
10116.00000 0.00211
10119.00000 0.00289
10122.00000 0.00208
10125.00000 0.00198
10128.00000 0.00231
10131.00000 0.00292
10134.00000 0.00264
10137.00000 0.00221
10140.00000 0.00281
10143.00000 0.00222
10146.00000 0.00261
10149.00000 0.00263
10152.00000 0.0023
10155.00000 0.00244
10158.00000 0.00237
10161.00000 0.00218
10164.00000 0.00239
10167.00000 0.00272
10170.00000 0.00245
10173.00000 0.00245
10176.00000 0.00185
10179.00000 0.00241
10182.00000 0.00258
10185.00000 0.00249
10188.00000 0.00222
10191.00000 0.00214
10194.00000 0.00256
10197.00000 0.00224
10200.00000 0.0024
11220.00000 0.0
