# %ECSV 0.9
# ---
# datatype:
# - {name: wavelength, unit: Angstrom, datatype: float32}
# - {name: response, datatype: float32}
# meta: !!omap
# - {band_name: R}
# - {group_name: MagIC}
wavelength response
4495.50000 0.0
4995.00000 1e-05
5000.00000 1e-05
5005.00000 2e-05
5010.00000 2e-05
5015.00000 1e-05
5020.00000 1e-05
5025.00000 2e-05
5030.00000 1e-05
5035.00000 2e-05
5040.00000 2e-05
5045.00000 2e-05
5050.00000 1e-05
5055.00000 1e-05
5060.00000 2e-05
5065.00000 2e-05
5070.00000 2e-05
5075.00000 1e-05
5080.00000 2e-05
5085.00000 2e-05
5090.00000 1e-05
5095.00000 2e-05
5100.00000 2e-05
5105.00000 2e-05
5110.00000 2e-05
5115.00000 2e-05
5120.00000 2e-05
5125.00000 2e-05
5130.00000 1e-05
5135.00000 2e-05
5140.00000 2e-05
5145.00000 1e-05
5150.00000 1e-05
5155.00000 2e-05
5160.00000 2e-05
5165.00000 2e-05
5170.00000 2e-05
5175.00000 2e-05
5180.00000 2e-05
5185.00000 2e-05
5190.00000 2e-05
5195.00000 1e-05
5200.00000 2e-05
5205.00000 1e-05
5210.00000 2e-05
5215.00000 1e-05
5220.00000 1e-05
5225.00000 2e-05
5230.00000 2e-05
5235.00000 2e-05
5240.00000 1e-05
5245.00000 2e-05
5250.00000 0.0
5255.00000 1e-05
5260.00000 2e-05
5265.00000 2e-05
5270.00000 2e-05
5275.00000 3e-05
5280.00000 2e-05
5285.00000 2e-05
5290.00000 2e-05
5295.00000 2e-05
5300.00000 2e-05
5305.00000 3e-05
5310.00000 2e-05
5315.00000 2e-05
5320.00000 2e-05
5325.00000 3e-05
5330.00000 4e-05
5335.00000 4e-05
5340.00000 4e-05
5345.00000 4e-05
5350.00000 5e-05
5355.00000 6e-05
5360.00000 7e-05
5365.00000 7e-05
5370.00000 0.0001
5375.00000 0.00011
5380.00000 0.00014
5385.00000 0.00017
5390.00000 0.00021
5395.00000 0.00025
5400.00000 0.00031
5405.00000 0.00039
5410.00000 0.00049
5415.00000 0.00061
5420.00000 0.00076
5425.00000 0.00096
5430.00000 0.00118
5435.00000 0.0015
5440.00000 0.00184
5445.00000 0.00231
5450.00000 0.00286
5455.00000 0.00352
5460.00000 0.00438
5465.00000 0.00537
5470.00000 0.00655
5475.00000 0.00796
5480.00000 0.00963
5485.00000 0.01159
5490.00000 0.01391
5495.00000 0.01665
5500.00000 0.01979
5505.00000 0.0234
5510.00000 0.02743
5515.00000 0.03223
5520.00000 0.03756
5525.00000 0.04321
5530.00000 0.05
5535.00000 0.05713
5540.00000 0.0651
5545.00000 0.07401
5550.00000 0.08329
5555.00000 0.09367
5560.00000 0.1047
5565.00000 0.11629
5570.00000 0.12897
5575.00000 0.14176
5580.00000 0.15566
5585.00000 0.17011
5590.00000 0.18479
5595.00000 0.20048
5600.00000 0.21674
5605.00000 0.23345
5610.00000 0.25121
5615.00000 0.26891
5620.00000 0.2866
5625.00000 0.30536
5630.00000 0.3239
5635.00000 0.34217
5640.00000 0.36137
5645.00000 0.38009
5650.00000 0.39941
5655.00000 0.41802
5660.00000 0.43691
5665.00000 0.45573
5670.00000 0.47337
5675.00000 0.49144
5680.00000 0.50974
5685.00000 0.52621
5690.00000 0.54375
5695.00000 0.55934
5700.00000 0.57501
5705.00000 0.59089
5710.00000 0.60635
5715.00000 0.62118
5720.00000 0.63509
5725.00000 0.64886
5730.00000 0.66209
5735.00000 0.67412
5740.00000 0.68634
5745.00000 0.69744
5750.00000 0.70866
5755.00000 0.71857
5760.00000 0.72849
5765.00000 0.73694
5770.00000 0.74684
5775.00000 0.7554
5780.00000 0.76317
5785.00000 0.77143
5790.00000 0.77777
5795.00000 0.78493
5800.00000 0.79102
5805.00000 0.79657
5810.00000 0.80162
5815.00000 0.80705
5820.00000 0.8114
5825.00000 0.81569
5830.00000 0.81975
5835.00000 0.82345
5840.00000 0.82721
5845.00000 0.8305
5850.00000 0.83391
5855.00000 0.837
5860.00000 0.83992
5865.00000 0.84195
5870.00000 0.8444
5875.00000 0.84611
5880.00000 0.84842
5885.00000 0.84983
5890.00000 0.85198
5895.00000 0.85349
5900.00000 0.85451
5905.00000 0.8554
5910.00000 0.8568
5915.00000 0.85708
5920.00000 0.85809
5925.00000 0.85825
5930.00000 0.85867
5935.00000 0.85917
5940.00000 0.85972
5945.00000 0.86031
5950.00000 0.86014
5955.00000 0.86139
5960.00000 0.86169
5965.00000 0.8612
5970.00000 0.86166
5975.00000 0.86134
5980.00000 0.86084
5985.00000 0.86061
5990.00000 0.86024
5995.00000 0.85986
6000.00000 0.85929
6005.00000 0.85931
6010.00000 0.85881
6015.00000 0.85852
6020.00000 0.8583
6025.00000 0.85825
6030.00000 0.85726
6035.00000 0.85657
6040.00000 0.85578
6045.00000 0.85532
6050.00000 0.85447
6055.00000 0.85379
6060.00000 0.853
6065.00000 0.85212
6070.00000 0.85151
6075.00000 0.85106
6080.00000 0.84987
6085.00000 0.84891
6090.00000 0.8478
6095.00000 0.84737
6100.00000 0.84579
6105.00000 0.84501
6110.00000 0.84379
6115.00000 0.84323
6120.00000 0.84211
6125.00000 0.84101
6130.00000 0.83983
6135.00000 0.83956
6140.00000 0.83866
6145.00000 0.83787
6150.00000 0.83596
6155.00000 0.83518
6160.00000 0.834
6165.00000 0.83274
6170.00000 0.83105
6175.00000 0.82998
6180.00000 0.82856
6185.00000 0.82742
6190.00000 0.826
6195.00000 0.82547
6200.00000 0.82375
6205.00000 0.82268
6210.00000 0.82176
6215.00000 0.82004
6220.00000 0.81843
6225.00000 0.81717
6230.00000 0.8155
6235.00000 0.81439
6240.00000 0.81325
6245.00000 0.81179
6250.00000 0.81055
6255.00000 0.80917
6260.00000 0.80772
6265.00000 0.80646
6270.00000 0.80453
6275.00000 0.80349
6280.00000 0.80112
6285.00000 0.80025
6290.00000 0.7982
6295.00000 0.79716
6300.00000 0.79557
6305.00000 0.79453
6310.00000 0.79294
6315.00000 0.79161
6320.00000 0.78981
6325.00000 0.78858
6330.00000 0.78674
6335.00000 0.78488
6340.00000 0.78302
6345.00000 0.78194
6350.00000 0.77956
6355.00000 0.77842
6360.00000 0.77652
6365.00000 0.77545
6370.00000 0.77349
6375.00000 0.77258
6380.00000 0.77046
6385.00000 0.76937
6390.00000 0.76741
6395.00000 0.76601
6400.00000 0.76403
6405.00000 0.76244
6410.00000 0.76059
6415.00000 0.75911
6420.00000 0.75731
6425.00000 0.756
6430.00000 0.75412
6435.00000 0.75279
6440.00000 0.75087
6445.00000 0.74931
6450.00000 0.74699
6455.00000 0.74546
6460.00000 0.74374
6465.00000 0.74147
6470.00000 0.7396
6475.00000 0.73788
6480.00000 0.73601
6485.00000 0.73474
6490.00000 0.73336
6495.00000 0.73172
6500.00000 0.72955
6505.00000 0.72798
6510.00000 0.72596
6515.00000 0.7236
6520.00000 0.72204
6525.00000 0.72031
6530.00000 0.71826
6535.00000 0.71665
6540.00000 0.71478
6545.00000 0.71332
6550.00000 0.71193
6555.00000 0.70988
6560.00000 0.70838
6565.00000 0.70606
6570.00000 0.7045
6575.00000 0.70263
6580.00000 0.70036
6585.00000 0.69857
6590.00000 0.69651
6595.00000 0.69501
6600.00000 0.69273
6605.00000 0.69103
6610.00000 0.68894
6615.00000 0.68737
6620.00000 0.68507
6625.00000 0.68364
6630.00000 0.68169
6635.00000 0.67957
6640.00000 0.67767
6645.00000 0.67589
6650.00000 0.67354
6655.00000 0.67231
6660.00000 0.66995
6665.00000 0.66864
6670.00000 0.66672
6675.00000 0.66471
6680.00000 0.66267
6685.00000 0.66087
6690.00000 0.6588
6695.00000 0.65689
6700.00000 0.65459
6705.00000 0.65272
6710.00000 0.65059
6715.00000 0.64859
6720.00000 0.64628
6725.00000 0.64514
6730.00000 0.64263
6735.00000 0.64071
6740.00000 0.63831
6745.00000 0.63664
6750.00000 0.63455
6755.00000 0.63226
6760.00000 0.62996
6765.00000 0.62818
6770.00000 0.62549
6775.00000 0.62363
6780.00000 0.62118
6785.00000 0.61957
6790.00000 0.61735
6795.00000 0.61498
6800.00000 0.61265
6805.00000 0.61028
6810.00000 0.60803
6815.00000 0.606
6820.00000 0.60397
6825.00000 0.60139
6830.00000 0.59918
6835.00000 0.59663
6840.00000 0.59459
6845.00000 0.59193
6850.00000 0.59005
6855.00000 0.58784
6860.00000 0.58528
6865.00000 0.58304
6870.00000 0.58074
6875.00000 0.57829
6880.00000 0.57616
6885.00000 0.57362
6890.00000 0.57126
6895.00000 0.56895
6900.00000 0.56675
6905.00000 0.56465
6910.00000 0.56254
6915.00000 0.5602
6920.00000 0.55762
6925.00000 0.55537
6930.00000 0.55307
6935.00000 0.55066
6940.00000 0.54825
6945.00000 0.54593
6950.00000 0.54337
6955.00000 0.54094
6960.00000 0.53903
6965.00000 0.53622
6970.00000 0.53444
6975.00000 0.53211
6980.00000 0.52917
6985.00000 0.5272
6990.00000 0.52476
6995.00000 0.52206
7000.00000 0.52014
7005.00000 0.51731
7010.00000 0.51508
7015.00000 0.51247
7020.00000 0.51023
7025.00000 0.50797
7030.00000 0.50562
7035.00000 0.50338
7040.00000 0.50078
7045.00000 0.49847
7050.00000 0.49566
7055.00000 0.49341
7060.00000 0.49124
7065.00000 0.48882
7070.00000 0.48635
7075.00000 0.48432
7080.00000 0.48213
7085.00000 0.47958
7090.00000 0.47734
7095.00000 0.4755
7100.00000 0.47298
7105.00000 0.47058
7110.00000 0.46805
7115.00000 0.46555
7120.00000 0.46367
7125.00000 0.46123
7130.00000 0.45883
7135.00000 0.45718
7140.00000 0.45439
7145.00000 0.45161
7150.00000 0.44963
7155.00000 0.44763
7160.00000 0.44465
7165.00000 0.4428
7170.00000 0.4402
7175.00000 0.43829
7180.00000 0.43563
7185.00000 0.43336
7190.00000 0.43092
7195.00000 0.42862
7200.00000 0.42618
7205.00000 0.42435
7210.00000 0.42234
7215.00000 0.42032
7220.00000 0.41794
7225.00000 0.41562
7230.00000 0.41314
7235.00000 0.41136
7240.00000 0.40935
7245.00000 0.40634
7250.00000 0.40446
7255.00000 0.4023
7260.00000 0.39986
7265.00000 0.39769
7270.00000 0.39555
7275.00000 0.39354
7280.00000 0.39121
7285.00000 0.38892
7290.00000 0.38697
7295.00000 0.38444
7300.00000 0.38233
7305.00000 0.38017
7310.00000 0.37794
7315.00000 0.37564
7320.00000 0.37355
7325.00000 0.37152
7330.00000 0.36906
7335.00000 0.36716
7340.00000 0.36513
7345.00000 0.36275
7350.00000 0.36058
7355.00000 0.35833
7360.00000 0.3564
7365.00000 0.35466
7370.00000 0.35216
7375.00000 0.3503
7380.00000 0.34791
7385.00000 0.34628
7390.00000 0.34375
7395.00000 0.34177
7400.00000 0.33963
7405.00000 0.33772
7410.00000 0.3355
7415.00000 0.33322
7420.00000 0.3311
7425.00000 0.329
7430.00000 0.32649
7435.00000 0.32491
7440.00000 0.32291
7445.00000 0.3204
7450.00000 0.3185
7455.00000 0.31667
7460.00000 0.315
7465.00000 0.31312
7470.00000 0.3106
7475.00000 0.30844
7480.00000 0.30637
7485.00000 0.30424
7490.00000 0.30236
7495.00000 0.30016
7500.00000 0.29828
7505.00000 0.29654
7510.00000 0.29435
7515.00000 0.29219
7520.00000 0.29047
7525.00000 0.2885
7530.00000 0.28628
7535.00000 0.28464
7540.00000 0.2824
7545.00000 0.28062
7550.00000 0.27856
7555.00000 0.27656
7560.00000 0.27474
7565.00000 0.27263
7570.00000 0.27082
7575.00000 0.26918
7580.00000 0.26726
7585.00000 0.26505
7590.00000 0.26299
7595.00000 0.261
7600.00000 0.25923
7605.00000 0.25735
7610.00000 0.25551
7615.00000 0.25373
7620.00000 0.25162
7625.00000 0.25006
7630.00000 0.24823
7635.00000 0.24621
7640.00000 0.2446
7645.00000 0.24257
7650.00000 0.24106
7655.00000 0.2392
7660.00000 0.23758
7665.00000 0.23533
7670.00000 0.23383
7675.00000 0.23197
7680.00000 0.23029
7685.00000 0.22836
7690.00000 0.22677
7695.00000 0.22464
7700.00000 0.22318
7705.00000 0.2216
7710.00000 0.21975
7715.00000 0.21789
7720.00000 0.21613
7725.00000 0.2143
7730.00000 0.21276
7735.00000 0.21114
7740.00000 0.20957
7745.00000 0.20776
7750.00000 0.20592
7755.00000 0.20446
7760.00000 0.20304
7765.00000 0.20163
7770.00000 0.19976
7775.00000 0.19796
7780.00000 0.19659
7785.00000 0.19511
7790.00000 0.19302
7795.00000 0.19184
7800.00000 0.19023
7805.00000 0.18922
7810.00000 0.18706
7815.00000 0.18543
7820.00000 0.18426
7825.00000 0.18282
7830.00000 0.18086
7835.00000 0.17967
7840.00000 0.17786
7845.00000 0.17649
7850.00000 0.17454
7855.00000 0.17357
7860.00000 0.17216
7865.00000 0.17085
7870.00000 0.16878
7875.00000 0.16758
7880.00000 0.16652
7885.00000 0.16471
7890.00000 0.16358
7895.00000 0.16226
7900.00000 0.16069
7905.00000 0.15941
7910.00000 0.15771
7915.00000 0.15653
7920.00000 0.15509
7925.00000 0.15393
7930.00000 0.15254
7935.00000 0.15075
7940.00000 0.14961
7945.00000 0.14855
7950.00000 0.14727
7955.00000 0.14601
7960.00000 0.14459
7965.00000 0.14302
7970.00000 0.14181
7975.00000 0.14089
7980.00000 0.13943
7985.00000 0.138
7990.00000 0.13707
7995.00000 0.13589
8000.00000 0.13465
8005.00000 0.13346
8010.00000 0.1321
8015.00000 0.13091
8020.00000 0.12948
8025.00000 0.12837
8030.00000 0.12753
8035.00000 0.12635
8040.00000 0.12529
8045.00000 0.12421
8050.00000 0.12298
8055.00000 0.12128
8060.00000 0.12045
8065.00000 0.11922
8070.00000 0.11807
8075.00000 0.11747
8080.00000 0.11609
8085.00000 0.11493
8090.00000 0.11391
8095.00000 0.11285
8100.00000 0.11174
8105.00000 0.11072
8110.00000 0.11016
8115.00000 0.10859
8120.00000 0.10749
8125.00000 0.10648
8130.00000 0.10565
8135.00000 0.10453
8140.00000 0.10383
8145.00000 0.1029
8150.00000 0.1017
8155.00000 0.10073
8160.00000 0.10001
8165.00000 0.09876
8170.00000 0.0979
8175.00000 0.09673
8180.00000 0.09604
8185.00000 0.09485
8190.00000 0.09423
8195.00000 0.09303
8200.00000 0.09252
8205.00000 0.09161
8210.00000 0.09028
8215.00000 0.0893
8220.00000 0.0888
8225.00000 0.08783
8230.00000 0.08694
8235.00000 0.0861
8240.00000 0.08521
8245.00000 0.08411
8250.00000 0.08379
8255.00000 0.08241
8260.00000 0.08214
8265.00000 0.08128
8270.00000 0.08039
8275.00000 0.07971
8280.00000 0.07899
8285.00000 0.07788
8290.00000 0.07709
8295.00000 0.07667
8300.00000 0.07545
8305.00000 0.07494
8310.00000 0.07426
8315.00000 0.07351
8320.00000 0.07278
8325.00000 0.07158
8330.00000 0.07106
8335.00000 0.07037
8340.00000 0.06988
8345.00000 0.06939
8350.00000 0.06852
8355.00000 0.06778
8360.00000 0.06691
8365.00000 0.06617
8370.00000 0.06569
8375.00000 0.06511
8380.00000 0.06429
8385.00000 0.06383
8390.00000 0.06304
8395.00000 0.06215
8400.00000 0.06161
8405.00000 0.06091
8410.00000 0.06034
8415.00000 0.05931
8420.00000 0.05916
8425.00000 0.05867
8430.00000 0.05763
8435.00000 0.05726
8440.00000 0.05614
8445.00000 0.05615
8450.00000 0.0557
8455.00000 0.05478
8460.00000 0.05398
8465.00000 0.05391
8470.00000 0.05335
8475.00000 0.05266
8480.00000 0.05212
8485.00000 0.05163
8490.00000 0.05067
8495.00000 0.05005
8500.00000 0.0493
8505.00000 0.04915
8510.00000 0.04876
8515.00000 0.04843
8520.00000 0.04784
8525.00000 0.04738
8530.00000 0.04635
8535.00000 0.04638
8540.00000 0.04547
8545.00000 0.04548
8550.00000 0.04508
8555.00000 0.04424
8560.00000 0.04402
8565.00000 0.04298
8570.00000 0.04272
8575.00000 0.04195
8580.00000 0.04087
8585.00000 0.04154
8590.00000 0.04142
8595.00000 0.0407
8600.00000 0.03972
8605.00000 0.03959
8610.00000 0.03899
8615.00000 0.03945
8620.00000 0.03876
8625.00000 0.03852
8630.00000 0.0377
8635.00000 0.0372
8640.00000 0.03716
8645.00000 0.0363
8650.00000 0.03568
8655.00000 0.03536
8660.00000 0.03516
8665.00000 0.03539
8670.00000 0.03489
8675.00000 0.034
8680.00000 0.03381
8685.00000 0.03352
8690.00000 0.03278
8695.00000 0.03249
8700.00000 0.03197
8705.00000 0.03224
8710.00000 0.03147
8715.00000 0.03233
8720.00000 0.03025
8725.00000 0.03019
8730.00000 0.03042
8735.00000 0.02992
8740.00000 0.029
8745.00000 0.02884
8750.00000 0.02869
8755.00000 0.02825
8760.00000 0.02784
8765.00000 0.02745
8770.00000 0.02803
8775.00000 0.027
8780.00000 0.027
8785.00000 0.02612
8790.00000 0.02682
8795.00000 0.02677
8800.00000 0.02591
8805.00000 0.02539
8810.00000 0.0253
8815.00000 0.02528
8820.00000 0.02464
8825.00000 0.02421
8830.00000 0.02462
8835.00000 0.02379
8840.00000 0.02401
8845.00000 0.02348
8850.00000 0.02332
8855.00000 0.02281
8860.00000 0.0228
8865.00000 0.0226
8870.00000 0.02226
8875.00000 0.02152
8880.00000 0.02199
8885.00000 0.0214
8890.00000 0.02089
8895.00000 0.02078
8900.00000 0.02047
8905.00000 0.02008
8910.00000 0.0202
8915.00000 0.02028
8920.00000 0.01967
8925.00000 0.02022
8930.00000 0.01918
8935.00000 0.01934
8940.00000 0.0187
8945.00000 0.01869
8950.00000 0.01856
8955.00000 0.01842
8960.00000 0.01838
8965.00000 0.01748
8970.00000 0.01819
8975.00000 0.01754
8980.00000 0.01772
8985.00000 0.01708
8990.00000 0.01672
8995.00000 0.01675
9000.00000 0.01731
9005.00000 0.01686
9010.00000 0.01589
9015.00000 0.01619
9020.00000 0.0159
9025.00000 0.01593
9030.00000 0.01588
9035.00000 0.01536
9040.00000 0.01544
9045.00000 0.01538
9050.00000 0.01457
9055.00000 0.01466
9060.00000 0.01455
9065.00000 0.01414
9070.00000 0.01421
9075.00000 0.01372
9080.00000 0.01433
9085.00000 0.01345
9090.00000 0.01348
9095.00000 0.01352
9100.00000 0.01284
9105.00000 0.01325
9110.00000 0.01343
9115.00000 0.01362
9120.00000 0.01252
9125.00000 0.01245
9130.00000 0.01242
9135.00000 0.01222
9140.00000 0.01229
9145.00000 0.01156
9150.00000 0.01187
9155.00000 0.01189
9160.00000 0.01177
9165.00000 0.01139
9170.00000 0.01148
9175.00000 0.01106
9180.00000 0.01112
9185.00000 0.01069
9190.00000 0.01082
9195.00000 0.01127
9200.00000 0.01028
9205.00000 0.0107
9210.00000 0.01003
9215.00000 0.01002
9220.00000 0.01089
9225.00000 0.00963
9230.00000 0.01026
9235.00000 0.00976
9240.00000 0.00944
9245.00000 0.00958
9250.00000 0.00981
9255.00000 0.00936
9260.00000 0.00964
9265.00000 0.00904
9270.00000 0.00921
9275.00000 0.00892
9280.00000 0.00897
9285.00000 0.00941
9290.00000 0.00851
9295.00000 0.00868
9300.00000 0.00833
9305.00000 0.00831
9310.00000 0.00861
9315.00000 0.00815
9320.00000 0.00812
9325.00000 0.00797
9330.00000 0.00797
9335.00000 0.0082
9340.00000 0.00805
9345.00000 0.00788
9350.00000 0.00744
9355.00000 0.00762
9360.00000 0.0074
9365.00000 0.00751
9370.00000 0.0078
9375.00000 0.00764
9380.00000 0.00713
9385.00000 0.0077
9390.00000 0.00676
9395.00000 0.00753
9400.00000 0.00707
9405.00000 0.0063
9410.00000 0.00635
9415.00000 0.00678
9420.00000 0.0066
9425.00000 0.00651
9430.00000 0.00661
9435.00000 0.0063
9440.00000 0.00634
9445.00000 0.00671
9450.00000 0.00645
9455.00000 0.00621
9460.00000 0.00595
9465.00000 0.00557
9470.00000 0.0053
9475.00000 0.0059
9480.00000 0.00578
9485.00000 0.00562
9490.00000 0.00543
9495.00000 0.00528
9500.00000 0.00534
9505.00000 0.00543
9510.00000 0.00534
9515.00000 0.00547
9520.00000 0.00529
9525.00000 0.00508
9530.00000 0.00556
9535.00000 0.00495
9540.00000 0.00517
9545.00000 0.00545
9550.00000 0.00493
9555.00000 0.00503
9560.00000 0.00504
9565.00000 0.00488
9570.00000 0.00445
9575.00000 0.00491
9580.00000 0.00486
9585.00000 0.0046
9590.00000 0.00396
9595.00000 0.00428
9600.00000 0.00475
9605.00000 0.00519
9610.00000 0.0042
9615.00000 0.0043
9620.00000 0.00431
9625.00000 0.0046
9630.00000 0.00445
9635.00000 0.00426
9640.00000 0.0039
9645.00000 0.0048
9650.00000 0.00373
9655.00000 0.00349
9660.00000 0.00438
9665.00000 0.00421
9670.00000 0.0039
9675.00000 0.00405
9680.00000 0.00365
9685.00000 0.00376
9690.00000 0.00364
9695.00000 0.00387
9700.00000 0.00351
9705.00000 0.00366
9710.00000 0.00306
9715.00000 0.00372
9720.00000 0.00372
9725.00000 0.00357
9730.00000 0.00356
9735.00000 0.00323
9740.00000 0.00312
9745.00000 0.00374
9750.00000 0.00301
9755.00000 0.00302
9760.00000 0.00293
9765.00000 0.00332
9770.00000 0.00281
9775.00000 0.00305
9780.00000 0.00276
9785.00000 0.00289
9790.00000 0.00319
9795.00000 0.00385
9800.00000 0.00263
9805.00000 0.00259
9810.00000 0.00279
9815.00000 0.00282
9820.00000 0.00318
9825.00000 0.00267
9830.00000 0.00263
9835.00000 0.00254
9840.00000 0.00314
9845.00000 0.00303
9850.00000 0.00238
9855.00000 0.00316
9860.00000 0.00233
9865.00000 0.00286
9870.00000 0.00256
9875.00000 0.00241
9880.00000 0.00222
9885.00000 0.00229
9890.00000 0.00258
9895.00000 0.00224
9900.00000 0.00218
9905.00000 0.00239
9910.00000 0.00247
9915.00000 0.00238
9920.00000 0.00285
9925.00000 0.00197
9930.00000 0.00258
9935.00000 0.00255
9940.00000 0.00228
9945.00000 0.00262
9950.00000 0.00243
9955.00000 0.00237
9960.00000 0.00262
9965.00000 0.00196
9970.00000 0.00175
9975.00000 0.00244
9980.00000 0.00214
9985.00000 0.00172
9990.00000 0.0024
9995.00000 0.00164
10000.00000 0.00188
11000.00000 0.0
