# %ECSV 0.9
# ---
# datatype:
# - {name: wavelength, unit: Angstrom, datatype: float32}
# - {name: response, datatype: float32}
# meta: !!omap
# - {band_name: F150W}
# - {group_name: NIRISS}
wavelength response
11601.00000 0.0
12890.00000 0.00108653
12900.00000 0.00125823
12910.00000 0.00145924
12920.00000 0.00169853
12930.00000 0.00198284
12940.00000 0.0023206
12950.00000 0.00272506
12960.00000 0.00321455
12970.00000 0.00381224
12980.00000 0.00454298
12990.00000 0.0054422
13000.00000 0.00654637
13010.00000 0.0079061
13020.00000 0.0095896
13030.00000 0.0116565
13040.00000 0.0141738
13050.00000 0.0170406
13060.00000 0.0199248
13070.00000 0.022811
13080.00000 0.0253398
13090.00000 0.027531
13100.00000 0.0297866
13110.00000 0.0328484
13120.00000 0.0367292
13130.00000 0.041093
13140.00000 0.0460221
13150.00000 0.051727
13160.00000 0.0586089
13170.00000 0.0663357
13180.00000 0.0761392
13190.00000 0.088144
13200.00000 0.103539
13210.00000 0.121827
13220.00000 0.143575
13230.00000 0.168598
13240.00000 0.198068
13250.00000 0.230973
13260.00000 0.269018
13270.00000 0.312083
13280.00000 0.360775
13290.00000 0.413979
13300.00000 0.471265
13310.00000 0.530445
13320.00000 0.588921
13330.00000 0.645761
13340.00000 0.699675
13350.00000 0.748586
13360.00000 0.790598
13370.00000 0.826105
13380.00000 0.855395
13390.00000 0.87732
13400.00000 0.892628
13410.00000 0.904212
13420.00000 0.913093
13430.00000 0.91854
13440.00000 0.921421
13450.00000 0.92357
13460.00000 0.926001
13470.00000 0.929838
13480.00000 0.931084
13490.00000 0.932494
13500.00000 0.931669
13510.00000 0.932466
13520.00000 0.932659
13530.00000 0.932701
13540.00000 0.932595
13550.00000 0.932206
13560.00000 0.931646
13570.00000 0.930229
13580.00000 0.929485
13590.00000 0.929554
13600.00000 0.930169
13610.00000 0.930458
13620.00000 0.930356
13630.00000 0.929884
13640.00000 0.929524
13650.00000 0.929855
13660.00000 0.929761
13670.00000 0.929296
13680.00000 0.92801
13690.00000 0.925846
13700.00000 0.92437
13710.00000 0.924351
13720.00000 0.924027
13730.00000 0.923074
13740.00000 0.921351
13750.00000 0.920006
13760.00000 0.919716
13770.00000 0.91989
13780.00000 0.919387
13790.00000 0.918105
13800.00000 0.917693
13810.00000 0.916545
13820.00000 0.915954
13830.00000 0.914696
13840.00000 0.912529
13850.00000 0.911171
13860.00000 0.910024
13870.00000 0.908
13880.00000 0.906041
13890.00000 0.904497
13900.00000 0.906103
13910.00000 0.906712
13920.00000 0.907467
13930.00000 0.908016
13940.00000 0.907902
13950.00000 0.90935
13960.00000 0.909519
13970.00000 0.910387
13980.00000 0.910241
13990.00000 0.910043
14000.00000 0.910252
14010.00000 0.909713
14020.00000 0.910677
14030.00000 0.910594
14040.00000 0.911645
14050.00000 0.913136
14060.00000 0.913521
14070.00000 0.914152
14080.00000 0.91507
14090.00000 0.918252
14100.00000 0.920828
14110.00000 0.922306
14120.00000 0.924003
14130.00000 0.925963
14140.00000 0.926529
14150.00000 0.928215
14160.00000 0.930373
14170.00000 0.931986
14180.00000 0.931617
14190.00000 0.931698
14200.00000 0.932129
14210.00000 0.933582
14220.00000 0.934565
14230.00000 0.937025
14240.00000 0.938343
14250.00000 0.939418
14260.00000 0.939157
14270.00000 0.939349
14280.00000 0.94018
14290.00000 0.941689
14300.00000 0.941623
14310.00000 0.940904
14320.00000 0.940687
14330.00000 0.940547
14340.00000 0.938923
14350.00000 0.937205
14360.00000 0.934806
14370.00000 0.933457
14380.00000 0.931651
14390.00000 0.930988
14400.00000 0.931427
14410.00000 0.932701
14420.00000 0.934796
14430.00000 0.936975
14440.00000 0.936634
14450.00000 0.936037
14460.00000 0.935578
14470.00000 0.93704
14480.00000 0.938876
14490.00000 0.940658
14500.00000 0.941853
14510.00000 0.943451
14520.00000 0.943561
14530.00000 0.944271
14540.00000 0.944983
14550.00000 0.94636
14560.00000 0.946367
14570.00000 0.944932
14580.00000 0.944226
14590.00000 0.943267
14600.00000 0.941716
14610.00000 0.939315
14620.00000 0.9373
14630.00000 0.933291
14640.00000 0.930318
14650.00000 0.926124
14660.00000 0.923534
14670.00000 0.919921
14680.00000 0.915763
14690.00000 0.910573
14700.00000 0.9057
14710.00000 0.901693
14720.00000 0.898184
14730.00000 0.897144
14740.00000 0.896689
14750.00000 0.896251
14760.00000 0.895824
14770.00000 0.896837
14780.00000 0.898227
14790.00000 0.899964
14800.00000 0.90273
14810.00000 0.907828
14820.00000 0.912847
14830.00000 0.916408
14840.00000 0.920015
14850.00000 0.924047
14860.00000 0.92825
14870.00000 0.93146
14880.00000 0.934905
14890.00000 0.937165
14900.00000 0.939936
14910.00000 0.94191
14920.00000 0.943032
14930.00000 0.941771
14940.00000 0.939113
14950.00000 0.937903
14960.00000 0.939378
14970.00000 0.942115
14980.00000 0.942866
14990.00000 0.943639
15000.00000 0.944168
15010.00000 0.944224
15020.00000 0.943594
15030.00000 0.944635
15040.00000 0.94765
15050.00000 0.949416
15060.00000 0.950067
15070.00000 0.950408
15080.00000 0.951386
15090.00000 0.953346
15100.00000 0.954656
15110.00000 0.956864
15120.00000 0.958177
15130.00000 0.960187
15140.00000 0.960706
15150.00000 0.961723
15160.00000 0.962605
15170.00000 0.963422
15180.00000 0.963283
15190.00000 0.963059
15200.00000 0.963439
15210.00000 0.962274
15220.00000 0.960371
15230.00000 0.956955
15240.00000 0.954785
15250.00000 0.954061
15260.00000 0.953047
15270.00000 0.951949
15280.00000 0.950444
15290.00000 0.947275
15300.00000 0.945594
15310.00000 0.945577
15320.00000 0.945887
15330.00000 0.945101
15340.00000 0.944021
15350.00000 0.943351
15360.00000 0.942877
15370.00000 0.943858
15380.00000 0.943967
15390.00000 0.944731
15400.00000 0.943189
15410.00000 0.943257
15420.00000 0.942472
15430.00000 0.942581
15440.00000 0.940418
15450.00000 0.938094
15460.00000 0.935958
15470.00000 0.933347
15480.00000 0.930625
15490.00000 0.928703
15500.00000 0.927575
15510.00000 0.926879
15520.00000 0.924815
15530.00000 0.923666
15540.00000 0.923315
15550.00000 0.923411
15560.00000 0.923513
15570.00000 0.924408
15580.00000 0.926485
15590.00000 0.928539
15600.00000 0.928448
15610.00000 0.928032
15620.00000 0.928309
15630.00000 0.928668
15640.00000 0.929982
15650.00000 0.932068
15660.00000 0.934851
15670.00000 0.935551
15680.00000 0.935746
15690.00000 0.935167
15700.00000 0.935185
15710.00000 0.935226
15720.00000 0.936773
15730.00000 0.937966
15740.00000 0.938084
15750.00000 0.937864
15760.00000 0.938652
15770.00000 0.940892
15780.00000 0.943005
15790.00000 0.945408
15800.00000 0.948058
15810.00000 0.950688
15820.00000 0.953099
15830.00000 0.955072
15840.00000 0.957273
15850.00000 0.959445
15860.00000 0.961052
15870.00000 0.962369
15880.00000 0.964003
15890.00000 0.966298
15900.00000 0.967627
15910.00000 0.967511
15920.00000 0.966433
15930.00000 0.966961
15940.00000 0.966564
15950.00000 0.967002
15960.00000 0.966334
15970.00000 0.96507
15980.00000 0.963682
15990.00000 0.962862
16000.00000 0.9638
16010.00000 0.961918
16020.00000 0.961097
16030.00000 0.961291
16040.00000 0.96325
16050.00000 0.962889
16060.00000 0.96086
16070.00000 0.961023
16080.00000 0.961043
16090.00000 0.962526
16100.00000 0.96288
16110.00000 0.965339
16120.00000 0.966838
16130.00000 0.968032
16140.00000 0.967763
16150.00000 0.968307
16160.00000 0.967062
16170.00000 0.966472
16180.00000 0.964981
16190.00000 0.964609
16200.00000 0.964041
16210.00000 0.961733
16220.00000 0.960093
16230.00000 0.958738
16240.00000 0.958031
16250.00000 0.95768
16260.00000 0.957786
16270.00000 0.957973
16280.00000 0.958747
16290.00000 0.958776
16300.00000 0.957851
16310.00000 0.956705
16320.00000 0.956605
16330.00000 0.957965
16340.00000 0.960236
16350.00000 0.960275
16360.00000 0.959207
16370.00000 0.957777
16380.00000 0.957048
16390.00000 0.957723
16400.00000 0.95739
16410.00000 0.956126
16420.00000 0.955281
16430.00000 0.952383
16440.00000 0.95112
16450.00000 0.949282
16460.00000 0.948451
16470.00000 0.947329
16480.00000 0.945561
16490.00000 0.943997
16500.00000 0.942852
16510.00000 0.942761
16520.00000 0.943781
16530.00000 0.945256
16540.00000 0.947078
16550.00000 0.948467
16560.00000 0.951375
16570.00000 0.951883
16580.00000 0.950511
16590.00000 0.945706
16600.00000 0.937979
16610.00000 0.926385
16620.00000 0.90706
16630.00000 0.879844
16640.00000 0.845306
16650.00000 0.804209
16660.00000 0.754603
16670.00000 0.699188
16680.00000 0.639419
16690.00000 0.578917
16700.00000 0.5171
16710.00000 0.456745
16720.00000 0.39877
16730.00000 0.344737
16740.00000 0.29598
16750.00000 0.252921
16760.00000 0.216539
16770.00000 0.18682
16780.00000 0.162473
16790.00000 0.142539
16800.00000 0.124727
16810.00000 0.109334
16820.00000 0.0956173
16830.00000 0.0845127
16840.00000 0.0750875
16850.00000 0.0671633
16860.00000 0.0594205
16870.00000 0.0518566
16880.00000 0.0442508
16890.00000 0.0373856
16900.00000 0.031423
16910.00000 0.0264373
16920.00000 0.022176
16930.00000 0.0186208
16940.00000 0.0156113
16950.00000 0.0131219
16960.00000 0.0110438
16970.00000 0.00933023
16980.00000 0.00789753
16990.00000 0.00670175
17000.00000 0.00569798
17010.00000 0.00486221
17020.00000 0.00416498
17030.00000 0.0035778
17040.00000 0.00308268
17050.00000 0.0026619
17060.00000 0.002307
17070.00000 0.00200744
17080.00000 0.0017505
17090.00000 0.00153223
17100.00000 0.00134428
17110.00000 0.00118271
17120.00000 0.00104184
18832.00000 0.0
