# %ECSV 0.9
# ---
# datatype:
# - {name: wavelength, unit: Angstrom, datatype: float32}
# - {name: response, datatype: float32}
# meta: !!omap
# - {band_name: Sloan_i}
# - {group_name: WiFSIP}
wavelength response
6003.00000 0.0
6670.00000 4.3e-05
6675.00000 4e-05
6680.00000 4.7e-05
6685.00000 7.3e-05
6690.00000 7.9e-05
6695.00000 0.00012
6700.00000 0.00012
6705.00000 0.000171
6710.00000 0.000203
6715.00000 0.000233
6720.00000 0.000314
6725.00000 0.000373
6730.00000 0.000472
6735.00000 0.000562
6740.00000 0.000678
6745.00000 0.00082
6750.00000 0.001019
6755.00000 0.001254
6760.00000 0.001497
6765.00000 0.001828
6770.00000 0.002186
6775.00000 0.002655
6780.00000 0.003236
6785.00000 0.003885
6790.00000 0.004647
6795.00000 0.005615
6800.00000 0.006668
6805.00000 0.00801
6810.00000 0.009539
6815.00000 0.011283
6820.00000 0.013401
6825.00000 0.015775
6830.00000 0.018532
6835.00000 0.021826
6840.00000 0.025436
6845.00000 0.029684
6850.00000 0.034443
6855.00000 0.039655
6860.00000 0.04575
6865.00000 0.052235
6870.00000 0.059581
6875.00000 0.067922
6880.00000 0.076645
6885.00000 0.086466
6890.00000 0.096938
6895.00000 0.108209
6900.00000 0.1207
6905.00000 0.133698
6910.00000 0.147403
6915.00000 0.162384
6920.00000 0.177431
6925.00000 0.193728
6930.00000 0.21065
6935.00000 0.228012
6940.00000 0.246507
6945.00000 0.264808
6950.00000 0.283537
6955.00000 0.303119
6960.00000 0.322225
6965.00000 0.342049
6970.00000 0.362008
6975.00000 0.381637
6980.00000 0.401928
6985.00000 0.421337
6990.00000 0.441034
6995.00000 0.460851
7000.00000 0.479396
7005.00000 0.498469
7010.00000 0.517038
7015.00000 0.534968
7020.00000 0.553198
7025.00000 0.570423
7030.00000 0.587375
7035.00000 0.604472
7040.00000 0.620069
7045.00000 0.635712
7050.00000 0.650915
7055.00000 0.665514
7060.00000 0.679571
7065.00000 0.693332
7070.00000 0.706365
7075.00000 0.719166
7080.00000 0.730919
7085.00000 0.742813
7090.00000 0.753851
7095.00000 0.764251
7100.00000 0.774674
7105.00000 0.784334
7110.00000 0.79368
7115.00000 0.802467
7120.00000 0.810641
7125.00000 0.818986
7130.00000 0.826644
7135.00000 0.834156
7140.00000 0.840913
7145.00000 0.847211
7150.00000 0.853415
7155.00000 0.859472
7160.00000 0.864741
7165.00000 0.869965
7170.00000 0.874861
7175.00000 0.87922
7180.00000 0.883745
7185.00000 0.887567
7190.00000 0.891135
7195.00000 0.89494
7200.00000 0.898026
7205.00000 0.901121
7210.00000 0.904168
7215.00000 0.906567
7220.00000 0.909263
7225.00000 0.911428
7230.00000 0.91374
7235.00000 0.91573
7240.00000 0.917519
7245.00000 0.919392
7250.00000 0.921087
7255.00000 0.922721
7260.00000 0.924071
7265.00000 0.925659
7270.00000 0.926829
7275.00000 0.928309
7280.00000 0.929345
7285.00000 0.930761
7290.00000 0.931811
7295.00000 0.933164
7300.00000 0.934233
7305.00000 0.935356
7310.00000 0.936437
7315.00000 0.937399
7320.00000 0.938638
7325.00000 0.93962
7330.00000 0.94059
7335.00000 0.941714
7340.00000 0.942623
7345.00000 0.944033
7350.00000 0.944859
7355.00000 0.946123
7360.00000 0.947075
7365.00000 0.94788
7370.00000 0.948819
7375.00000 0.949906
7380.00000 0.950747
7385.00000 0.951424
7390.00000 0.952666
7395.00000 0.953662
7400.00000 0.954052
7405.00000 0.954725
7410.00000 0.955481
7415.00000 0.956379
7420.00000 0.956558
7425.00000 0.957183
7430.00000 0.957565
7435.00000 0.957995
7440.00000 0.958157
7445.00000 0.958335
7450.00000 0.958513
7455.00000 0.95824
7460.00000 0.958422
7465.00000 0.958006
7470.00000 0.957965
7475.00000 0.957343
7480.00000 0.956917
7485.00000 0.956524
7490.00000 0.956055
7495.00000 0.955389
7500.00000 0.955037
7505.00000 0.953863
7510.00000 0.953203
7515.00000 0.952446
7520.00000 0.951405
7525.00000 0.9505
7530.00000 0.949436
7535.00000 0.948232
7540.00000 0.947694
7545.00000 0.94678
7550.00000 0.945722
7555.00000 0.944294
7560.00000 0.943957
7565.00000 0.943188
7570.00000 0.942443
7575.00000 0.941401
7580.00000 0.940681
7585.00000 0.940127
7590.00000 0.939128
7595.00000 0.939026
7600.00000 0.938537
7605.00000 0.938013
7610.00000 0.937639
7615.00000 0.937583
7620.00000 0.937463
7625.00000 0.93743
7630.00000 0.937686
7635.00000 0.937822
7640.00000 0.938101
7645.00000 0.938264
7650.00000 0.938764
7655.00000 0.939299
7660.00000 0.939925
7665.00000 0.940508
7670.00000 0.941035
7675.00000 0.942326
7680.00000 0.942896
7685.00000 0.943587
7690.00000 0.944577
7695.00000 0.946188
7700.00000 0.947034
7705.00000 0.94745
7710.00000 0.948957
7715.00000 0.950019
7720.00000 0.951413
7725.00000 0.9522
7730.00000 0.953283
7735.00000 0.954133
7740.00000 0.955307
7745.00000 0.956041
7750.00000 0.957156
7755.00000 0.957834
7760.00000 0.958599
7765.00000 0.959539
7770.00000 0.960289
7775.00000 0.960505
7780.00000 0.961074
7785.00000 0.961404
7790.00000 0.961657
7795.00000 0.962167
7800.00000 0.962185
7805.00000 0.962164
7810.00000 0.962383
7815.00000 0.961995
7820.00000 0.961683
7825.00000 0.961334
7830.00000 0.961
7835.00000 0.960282
7840.00000 0.959816
7845.00000 0.959249
7850.00000 0.958139
7855.00000 0.95731
7860.00000 0.956371
7865.00000 0.95548
7870.00000 0.954206
7875.00000 0.953051
7880.00000 0.952194
7885.00000 0.950803
7890.00000 0.949739
7895.00000 0.948447
7900.00000 0.946922
7905.00000 0.946067
7910.00000 0.944469
7915.00000 0.942937
7920.00000 0.941541
7925.00000 0.940196
7930.00000 0.938853
7935.00000 0.937602
7940.00000 0.936627
7945.00000 0.935187
7950.00000 0.934103
7955.00000 0.932577
7960.00000 0.932105
7965.00000 0.930587
7970.00000 0.929688
7975.00000 0.929226
7980.00000 0.928308
7985.00000 0.927208
7990.00000 0.926928
7995.00000 0.926422
8000.00000 0.92605
8005.00000 0.92525
8010.00000 0.925029
8015.00000 0.925184
8020.00000 0.924884
8025.00000 0.925243
8030.00000 0.925182
8035.00000 0.925205
8040.00000 0.925383
8045.00000 0.926385
8050.00000 0.92697
8055.00000 0.927415
8060.00000 0.928644
8065.00000 0.929251
8070.00000 0.930081
8075.00000 0.931146
8080.00000 0.932473
8085.00000 0.933156
8090.00000 0.934564
8095.00000 0.936378
8100.00000 0.936927
8105.00000 0.938149
8110.00000 0.940067
8115.00000 0.94075
8120.00000 0.942519
8125.00000 0.943935
8130.00000 0.945276
8135.00000 0.946441
8140.00000 0.947932
8145.00000 0.94858
8150.00000 0.94966
8155.00000 0.950352
8160.00000 0.951249
8165.00000 0.951409
8170.00000 0.952171
8175.00000 0.952926
8180.00000 0.952562
8185.00000 0.952673
8190.00000 0.95205
8195.00000 0.951293
8200.00000 0.951237
8205.00000 0.950706
8210.00000 0.949683
8215.00000 0.94887
8220.00000 0.947341
8225.00000 0.946694
8230.00000 0.945923
8235.00000 0.94464
8240.00000 0.94375
8245.00000 0.942685
8250.00000 0.941218
8255.00000 0.940413
8260.00000 0.93963
8265.00000 0.938218
8270.00000 0.937571
8275.00000 0.936242
8280.00000 0.934679
8285.00000 0.933788
8290.00000 0.93035
8295.00000 0.927342
8300.00000 0.923799
8305.00000 0.918062
8310.00000 0.911458
8315.00000 0.902443
8320.00000 0.891141
8325.00000 0.87713
8330.00000 0.859269
8335.00000 0.837768
8340.00000 0.813614
8345.00000 0.783781
8350.00000 0.750599
8355.00000 0.714244
8360.00000 0.673918
8365.00000 0.63254
8370.00000 0.587812
8375.00000 0.540946
8380.00000 0.496225
8385.00000 0.450592
8390.00000 0.407173
8395.00000 0.36602
8400.00000 0.326569
8405.00000 0.290885
8410.00000 0.258114
8415.00000 0.227239
8420.00000 0.200988
8425.00000 0.176346
8430.00000 0.154558
8435.00000 0.135678
8440.00000 0.118878
8445.00000 0.104503
8450.00000 0.091888
8455.00000 0.080618
8460.00000 0.07093
8465.00000 0.062169
8470.00000 0.054876
8475.00000 0.04836
8480.00000 0.042801
8485.00000 0.037913
8490.00000 0.033667
8495.00000 0.029806
8500.00000 0.026519
8505.00000 0.023579
8510.00000 0.021099
8515.00000 0.018879
8520.00000 0.016833
8525.00000 0.015115
8530.00000 0.013554
8535.00000 0.01211
8540.00000 0.01099
8545.00000 0.009894
8550.00000 0.008902
8555.00000 0.007988
8560.00000 0.007232
8565.00000 0.006578
8570.00000 0.005956
8575.00000 0.005375
8580.00000 0.00493
8585.00000 0.004481
8590.00000 0.004063
8595.00000 0.003707
8600.00000 0.003383
8605.00000 0.003133
8610.00000 0.002849
8615.00000 0.002607
8620.00000 0.002403
8625.00000 0.002197
8630.00000 0.002029
8635.00000 0.001884
8640.00000 0.001739
8645.00000 0.001577
8650.00000 0.001445
8655.00000 0.001342
8660.00000 0.00122
8665.00000 0.001151
8670.00000 0.001071
8675.00000 0.000973
8680.00000 0.000905
8685.00000 0.000835
8690.00000 0.000807
8695.00000 0.000748
8700.00000 0.000712
8705.00000 0.000659
8710.00000 0.00057
8715.00000 0.000545
8720.00000 0.000489
8725.00000 0.000484
8730.00000 0.000456
8735.00000 0.000423
8740.00000 0.000383
8745.00000 0.000353
8750.00000 0.000315
8755.00000 0.00035
8760.00000 0.000298
8765.00000 0.000295
8770.00000 0.000248
8775.00000 0.000257
8780.00000 0.000227
8785.00000 0.000218
8790.00000 0.000203
8795.00000 0.00022
8800.00000 0.000212
8805.00000 0.00019
8810.00000 0.000155
8815.00000 0.000164
8820.00000 0.000134
8825.00000 0.00013
8830.00000 0.000158
8835.00000 0.00012
8840.00000 0.000121
8845.00000 0.000111
8850.00000 0.000119
8855.00000 0.000103
8860.00000 0.000106
8865.00000 0.000102
8870.00000 0.000114
8875.00000 7.6e-05
8880.00000 9.1e-05
8885.00000 7.8e-05
8890.00000 6.2e-05
8895.00000 5.6e-05
8900.00000 8e-05
8905.00000 1.5e-05
8910.00000 8.5e-05
8915.00000 5.2e-05
8920.00000 4.7e-05
8925.00000 6.1e-05
8930.00000 4.5e-05
8935.00000 4.2e-05
8940.00000 7.9e-05
8945.00000 4.3e-05
8950.00000 5.2e-05
8955.00000 3.1e-05
8960.00000 2.9e-05
8965.00000 3.7e-05
8970.00000 8e-06
8975.00000 4.7e-05
8980.00000 3.2e-05
8985.00000 1.6e-05
8990.00000 0.0
8995.00000 8.9e-05
9000.00000 8.5e-05
9005.00000 0.000194
9010.00000 0.000101
9015.00000 6.3e-05
9020.00000 0.000118
9025.00000 0.000154
9030.00000 9.7e-05
9035.00000 7.2e-05
9040.00000 0.000152
9045.00000 0.000151
9050.00000 0.000104
9055.00000 0.000128
9060.00000 8.7e-05
9065.00000 7.6e-05
9070.00000 0.000176
9075.00000 8.6e-05
9080.00000 0.000101
9085.00000 8.4e-05
9090.00000 0.00013
9095.00000 8.9e-05
9100.00000 8.5e-05
9105.00000 0.00012
9110.00000 9e-05
9115.00000 6.5e-05
9120.00000 0.000159
9125.00000 0.000105
9130.00000 0.000125
9135.00000 0.000113
9140.00000 0.000106
9145.00000 8.7e-05
9150.00000 0.00011
9155.00000 0.000106
9160.00000 0.000101
9165.00000 0.000112
9170.00000 7.1e-05
9175.00000 0.000131
9180.00000 9e-05
9185.00000 0.000104
9190.00000 0.000101
9195.00000 8.5e-05
9200.00000 0.000142
9205.00000 0.000127
9210.00000 6.3e-05
9215.00000 6.7e-05
9220.00000 0.000143
9225.00000 8.8e-05
9230.00000 0.000102
9235.00000 8.7e-05
9240.00000 0.000121
9245.00000 4.2e-05
9250.00000 8.3e-05
9255.00000 0.000103
9260.00000 0.000104
9265.00000 8.6e-05
9270.00000 0.000127
9275.00000 0.000117
9280.00000 6.5e-05
9285.00000 0.000121
9290.00000 9.7e-05
9295.00000 5.9e-05
9300.00000 6.5e-05
9305.00000 0.000136
9310.00000 9.5e-05
9315.00000 0.000105
9320.00000 0.000118
9325.00000 8.1e-05
9330.00000 9e-05
9335.00000 8.7e-05
9340.00000 5.2e-05
9345.00000 5.9e-05
9350.00000 9.9e-05
9355.00000 8e-05
9360.00000 0.000105
9365.00000 9.6e-05
9370.00000 8.7e-05
9375.00000 0.000113
9380.00000 9.6e-05
9385.00000 9.9e-05
9390.00000 7.1e-05
9395.00000 0.000124
9400.00000 0.000109
9405.00000 5.8e-05
9410.00000 7.8e-05
9415.00000 9.8e-05
9420.00000 0.000108
9425.00000 0.000116
9430.00000 8.3e-05
9435.00000 9.1e-05
9440.00000 0.000112
9445.00000 0.000159
9450.00000 2.8e-05
9455.00000 7.9e-05
9460.00000 8.7e-05
9465.00000 0.000116
9470.00000 8.4e-05
9475.00000 4.8e-05
9480.00000 0.000118
9485.00000 0.000102
9490.00000 0.000128
9495.00000 9.9e-05
9500.00000 8.4e-05
9505.00000 7.1e-05
9510.00000 8.8e-05
9515.00000 0.000108
9520.00000 7.9e-05
9525.00000 7.3e-05
9530.00000 0.000102
9535.00000 9.9e-05
9540.00000 0.000104
9545.00000 6.3e-05
9550.00000 0.000118
9555.00000 0.000114
9560.00000 8.6e-05
9565.00000 8.1e-05
9570.00000 7.1e-05
9575.00000 7.4e-05
9580.00000 7.4e-05
9585.00000 0.000112
9590.00000 0.000117
9595.00000 0.000103
9600.00000 0.000111
9605.00000 9.3e-05
9610.00000 4.9e-05
9615.00000 9e-05
9620.00000 7.7e-05
9625.00000 9.2e-05
9630.00000 7.2e-05
9635.00000 7.5e-05
9640.00000 8.3e-05
9645.00000 5.5e-05
9650.00000 9.3e-05
9655.00000 0.000124
9660.00000 0.000108
9665.00000 9.1e-05
9670.00000 8.2e-05
9675.00000 7e-05
9680.00000 9.3e-05
9685.00000 7.3e-05
9690.00000 0.000103
9695.00000 0.000103
9700.00000 0.000116
9705.00000 7.1e-05
9710.00000 4.9e-05
10681.00000 0.0
