# %ECSV 0.9
# ---
# datatype:
# - {name: wavelength, unit: Angstrom, datatype: float32}
# - {name: response, datatype: float32}
# meta: !!omap
# - {band_name: S11}
# - {group_name: IRC}
wavelength response
70231.50000 0.0
78035.00000 0.00033506
78094.00000 0.00060309
78153.00000 0.00029367
78212.00000 0.00076654
78271.00000 0.00093808
78330.00000 0.00014461
78389.00000 0.00014641
78449.00000 0.00024399
78508.00000 0.00029563
78568.00000 0.00024089
78627.00000 0.00011563
78687.00000 1.1006e-05
78747.00000 0.00051496
78806.00000 0.00055718
78866.00000 9.8345e-05
78926.00000 0.00044005
78986.00000 0.00071388
79047.00000 0.00014525
79107.00000 0.00059009
79167.00000 0.00094676
79228.00000 0.0009666
79288.00000 0.00010933
79349.00000 0.0
79410.00000 0.00087246
79471.00000 0.00040935
79532.00000 0.0
79593.00000 0.00082204
79654.00000 0.00096556
79715.00000 0.00055766
79776.00000 0.00047569
79838.00000 0.00082689
79899.00000 0.0009026
79961.00000 0.0008552
80023.00000 0.00078673
80084.00000 0.0011081
80146.00000 0.00075952
80208.00000 0.00074747
80270.00000 0.00086741
80332.00000 0.00066509
80395.00000 0.0010213
80457.00000 0.0012122
80520.00000 0.00067529
80582.00000 0.000772
80645.00000 0.0013155
80708.00000 0.001208
80770.00000 0.00069234
80833.00000 0.0010867
80896.00000 0.0016455
80960.00000 0.0015704
81023.00000 0.0019275
81086.00000 0.0023239
81150.00000 0.0021117
81213.00000 0.0020953
81277.00000 0.0023397
81341.00000 0.0024221
81404.00000 0.0023926
81468.00000 0.0024934
81532.00000 0.0028964
81597.00000 0.0031815
81661.00000 0.0029132
81725.00000 0.0028204
81790.00000 0.0033429
81854.00000 0.0038289
81919.00000 0.0039524
81984.00000 0.0044857
82048.00000 0.0044898
82113.00000 0.0042447
82178.00000 0.0053281
82244.00000 0.0055632
82309.00000 0.0054221
82374.00000 0.0062394
82440.00000 0.0067402
82505.00000 0.0079958
82571.00000 0.0088196
82637.00000 0.0087528
82703.00000 0.010097
82769.00000 0.011338
82835.00000 0.011702
82901.00000 0.012586
82967.00000 0.013795
83034.00000 0.014808
83100.00000 0.016018
83167.00000 0.017559
83234.00000 0.01934
83301.00000 0.021093
83368.00000 0.022591
83435.00000 0.024846
83502.00000 0.027541
83569.00000 0.02953
83636.00000 0.032096
83704.00000 0.035944
83772.00000 0.03951
83839.00000 0.043015
83907.00000 0.047293
83975.00000 0.052069
84043.00000 0.057787
84111.00000 0.063552
84180.00000 0.069655
84248.00000 0.077519
84316.00000 0.085851
84385.00000 0.094208
84454.00000 0.10407
84523.00000 0.1157
84592.00000 0.12787
84661.00000 0.14148
84730.00000 0.157
84799.00000 0.17326
84868.00000 0.19112
84938.00000 0.21108
85008.00000 0.23298
85077.00000 0.25663
85147.00000 0.2825
85217.00000 0.31031
85287.00000 0.33894
85357.00000 0.36971
85428.00000 0.4021
85498.00000 0.43593
85569.00000 0.47051
85639.00000 0.50545
85710.00000 0.54086
85781.00000 0.57467
85852.00000 0.60757
85923.00000 0.63945
85994.00000 0.66985
86066.00000 0.69781
86137.00000 0.72278
86209.00000 0.74625
86281.00000 0.76581
86352.00000 0.783
86424.00000 0.79977
86496.00000 0.81284
86569.00000 0.82275
86641.00000 0.83119
86713.00000 0.83811
86786.00000 0.84288
86859.00000 0.84614
86931.00000 0.84878
87004.00000 0.85027
87077.00000 0.85154
87151.00000 0.85231
87224.00000 0.85204
87297.00000 0.85233
87371.00000 0.85246
87444.00000 0.85211
87518.00000 0.85179
87592.00000 0.84999
87666.00000 0.84931
87740.00000 0.85079
87815.00000 0.85044
87889.00000 0.85
87964.00000 0.8507
88038.00000 0.85044
88113.00000 0.85039
88188.00000 0.85101
88263.00000 0.85098
88338.00000 0.8507
88414.00000 0.85143
88489.00000 0.85277
88565.00000 0.85295
88640.00000 0.85316
88716.00000 0.85435
88792.00000 0.85523
88868.00000 0.85617
88944.00000 0.85734
89021.00000 0.85871
89097.00000 0.86089
89174.00000 0.86321
89251.00000 0.8658
89327.00000 0.86859
89404.00000 0.86946
89482.00000 0.87011
89559.00000 0.87287
89636.00000 0.87484
89714.00000 0.87674
89791.00000 0.88007
89869.00000 0.8823
89947.00000 0.8852
90025.00000 0.88925
90104.00000 0.89234
90182.00000 0.89491
90260.00000 0.8963
90339.00000 0.89835
90418.00000 0.90052
90497.00000 0.901
90576.00000 0.90232
90655.00000 0.90461
90734.00000 0.906
90814.00000 0.90701
90893.00000 0.90888
90973.00000 0.90945
91053.00000 0.90926
91133.00000 0.91097
91213.00000 0.9115
91293.00000 0.91135
91374.00000 0.91268
91454.00000 0.91472
91535.00000 0.91718
91616.00000 0.91774
91697.00000 0.91828
91778.00000 0.92018
91859.00000 0.92114
91941.00000 0.92212
92022.00000 0.92268
92104.00000 0.92253
92186.00000 0.92318
92268.00000 0.92411
92350.00000 0.92578
92432.00000 0.92672
92515.00000 0.92623
92597.00000 0.92806
92680.00000 0.92955
92763.00000 0.92849
92846.00000 0.92904
92929.00000 0.93008
93013.00000 0.92985
93096.00000 0.92982
93180.00000 0.93059
93264.00000 0.93181
93348.00000 0.93266
93432.00000 0.93447
93516.00000 0.93561
93600.00000 0.93398
93685.00000 0.93377
93770.00000 0.93519
93854.00000 0.93544
93939.00000 0.93569
94025.00000 0.93531
94110.00000 0.9352
94195.00000 0.93698
94281.00000 0.93744
94367.00000 0.93754
94453.00000 0.93747
94539.00000 0.9369
94625.00000 0.93795
94712.00000 0.93758
94798.00000 0.93737
94885.00000 0.93845
94972.00000 0.93702
95059.00000 0.93677
95146.00000 0.93878
95233.00000 0.93988
95321.00000 0.93978
95409.00000 0.9408
95496.00000 0.94353
95584.00000 0.94533
95673.00000 0.94696
95761.00000 0.94881
95850.00000 0.95031
95938.00000 0.95228
96027.00000 0.95383
96116.00000 0.9551
96205.00000 0.9557
96294.00000 0.957
96384.00000 0.95917
96474.00000 0.95929
96563.00000 0.96008
96653.00000 0.96287
96744.00000 0.96431
96834.00000 0.96434
96924.00000 0.96485
97015.00000 0.9663
97106.00000 0.96793
97197.00000 0.969
97288.00000 0.96888
97380.00000 0.96932
97471.00000 0.97102
97563.00000 0.97157
97655.00000 0.97167
97747.00000 0.97291
97839.00000 0.97408
97931.00000 0.97464
98024.00000 0.97568
98117.00000 0.97702
98209.00000 0.97714
98303.00000 0.9771
98396.00000 0.97837
98489.00000 0.97998
98583.00000 0.98161
98677.00000 0.98451
98771.00000 0.98654
98865.00000 0.98683
98959.00000 0.98838
99054.00000 0.99009
99148.00000 0.99216
99243.00000 0.99507
99338.00000 0.99489
99434.00000 0.99388
99529.00000 0.99577
99625.00000 0.99742
99720.00000 0.99845
99816.00000 1.0
99913.00000 0.99944
100009.00000 0.99761
100105.00000 0.9957
100202.00000 0.99358
100299.00000 0.98958
100396.00000 0.98667
100493.00000 0.98398
100591.00000 0.98127
100689.00000 0.97941
100786.00000 0.97488
100884.00000 0.97025
100983.00000 0.96811
101081.00000 0.9649
101180.00000 0.962
101278.00000 0.95995
101377.00000 0.95692
101477.00000 0.95431
101576.00000 0.95284
101676.00000 0.95093
101775.00000 0.94708
101875.00000 0.9439
101976.00000 0.94286
102076.00000 0.94042
102177.00000 0.93703
102277.00000 0.93596
102378.00000 0.93403
102479.00000 0.93063
102581.00000 0.92837
102682.00000 0.92552
102784.00000 0.92288
102886.00000 0.91987
102988.00000 0.91693
103091.00000 0.91574
103193.00000 0.91275
103296.00000 0.91037
103399.00000 0.9094
103502.00000 0.90574
103606.00000 0.90219
103709.00000 0.90079
103813.00000 0.89799
103917.00000 0.89329
104021.00000 0.89025
104126.00000 0.88708
104230.00000 0.8823
104335.00000 0.87953
104440.00000 0.87695
104546.00000 0.87231
104651.00000 0.86908
104757.00000 0.86648
104863.00000 0.86161
104969.00000 0.85785
105075.00000 0.85631
105182.00000 0.85373
105289.00000 0.85499
105396.00000 0.85626
105503.00000 0.85528
105610.00000 0.85631
105718.00000 0.85656
105826.00000 0.85591
105934.00000 0.85665
106042.00000 0.85772
106151.00000 0.85801
106259.00000 0.85774
106368.00000 0.8583
106478.00000 0.85961
106587.00000 0.86084
106697.00000 0.86154
106807.00000 0.86238
106917.00000 0.86335
107027.00000 0.86521
107138.00000 0.86745
107248.00000 0.8677
107359.00000 0.8689
107471.00000 0.8711
107582.00000 0.87279
107694.00000 0.87703
107806.00000 0.88045
107918.00000 0.88107
108030.00000 0.88318
108143.00000 0.88552
108256.00000 0.8872
108369.00000 0.88907
108482.00000 0.89008
108596.00000 0.8921
108710.00000 0.89425
108824.00000 0.89517
108938.00000 0.8973
109053.00000 0.89854
109168.00000 0.89879
109283.00000 0.90018
109398.00000 0.89987
109513.00000 0.89908
109629.00000 0.89955
109745.00000 0.90021
109861.00000 0.89965
109978.00000 0.89747
110095.00000 0.89648
110212.00000 0.89559
110329.00000 0.89151
110446.00000 0.88927
110564.00000 0.88808
110682.00000 0.88582
110800.00000 0.88475
110919.00000 0.8824
111038.00000 0.87912
111157.00000 0.87945
111276.00000 0.88052
111395.00000 0.8784
111515.00000 0.87622
111635.00000 0.8757
111756.00000 0.87481
111876.00000 0.87449
111997.00000 0.87478
112118.00000 0.87444
112239.00000 0.87401
112361.00000 0.87291
112483.00000 0.87225
112605.00000 0.871
112727.00000 0.86913
112850.00000 0.869
112973.00000 0.86755
113096.00000 0.86528
113220.00000 0.86462
113343.00000 0.8635
113467.00000 0.86201
113592.00000 0.86041
113716.00000 0.85925
113841.00000 0.85816
113966.00000 0.85682
114092.00000 0.85544
114217.00000 0.85206
114343.00000 0.84883
114469.00000 0.84617
114596.00000 0.84261
114723.00000 0.83942
114850.00000 0.8366
114977.00000 0.83394
115105.00000 0.83
115232.00000 0.82667
115361.00000 0.82549
115489.00000 0.82419
115618.00000 0.82154
115747.00000 0.81882
115876.00000 0.81611
116006.00000 0.81364
116136.00000 0.81352
116266.00000 0.81299
116396.00000 0.80957
116527.00000 0.80632
116658.00000 0.80387
116790.00000 0.80094
116921.00000 0.79687
117053.00000 0.79186
117186.00000 0.78701
117318.00000 0.7825
117451.00000 0.77779
117584.00000 0.77357
117718.00000 0.76935
117851.00000 0.76409
117985.00000 0.7593
118120.00000 0.75382
118254.00000 0.74796
118389.00000 0.74486
118525.00000 0.73933
118660.00000 0.73162
118796.00000 0.72784
118933.00000 0.72294
119069.00000 0.71667
119206.00000 0.71325
119343.00000 0.70921
119481.00000 0.70425
119618.00000 0.70038
119757.00000 0.69611
119895.00000 0.69161
120034.00000 0.68926
120173.00000 0.6874
120312.00000 0.68499
120452.00000 0.68313
120592.00000 0.67943
120732.00000 0.67631
120873.00000 0.67465
121014.00000 0.67234
121156.00000 0.67056
121297.00000 0.66842
121439.00000 0.66573
121582.00000 0.66346
121724.00000 0.66062
121867.00000 0.65774
122011.00000 0.65578
122155.00000 0.65317
122299.00000 0.64972
122443.00000 0.64616
122588.00000 0.64235
122733.00000 0.63945
122878.00000 0.6349
123024.00000 0.62856
123170.00000 0.62491
123317.00000 0.62217
123463.00000 0.61695
123610.00000 0.61042
123758.00000 0.60631
123906.00000 0.60214
124054.00000 0.59525
124203.00000 0.59069
124352.00000 0.58686
124501.00000 0.58036
124650.00000 0.57463
124800.00000 0.57009
124951.00000 0.56452
125102.00000 0.55811
125253.00000 0.55113
125404.00000 0.54334
125556.00000 0.53635
125708.00000 0.5306
125861.00000 0.52451
126014.00000 0.51772
126167.00000 0.51118
126321.00000 0.50386
126475.00000 0.49697
126629.00000 0.49318
126784.00000 0.48911
126939.00000 0.48384
127095.00000 0.48004
127251.00000 0.47576
127407.00000 0.4698
127564.00000 0.46475
127721.00000 0.46052
127878.00000 0.45606
128036.00000 0.45247
128194.00000 0.44845
128353.00000 0.44264
128512.00000 0.4376
128671.00000 0.43307
128831.00000 0.4287
128992.00000 0.42585
129152.00000 0.42247
129313.00000 0.41758
129475.00000 0.41247
129636.00000 0.40697
129799.00000 0.4022
129961.00000 0.39811
130124.00000 0.39442
130288.00000 0.39166
130452.00000 0.38843
130616.00000 0.38461
130781.00000 0.38124
130946.00000 0.37754
131111.00000 0.3743
131277.00000 0.37174
131444.00000 0.36842
131611.00000 0.36538
131778.00000 0.36239
131946.00000 0.35913
132114.00000 0.35707
132282.00000 0.35383
132451.00000 0.3498
132620.00000 0.34779
132790.00000 0.34527
132960.00000 0.34239
133131.00000 0.34017
133302.00000 0.33697
133474.00000 0.33446
133646.00000 0.33196
133818.00000 0.32935
133991.00000 0.32795
134165.00000 0.32607
134338.00000 0.32367
134513.00000 0.32096
134687.00000 0.318
134862.00000 0.31746
135038.00000 0.31665
135214.00000 0.31475
135391.00000 0.31455
135568.00000 0.31439
135745.00000 0.31274
135923.00000 0.3119
136101.00000 0.31255
136280.00000 0.31217
136459.00000 0.31051
136639.00000 0.31054
136819.00000 0.31084
137000.00000 0.30939
137181.00000 0.30981
137363.00000 0.31083
137545.00000 0.31026
137728.00000 0.31052
137911.00000 0.31122
138095.00000 0.31089
138279.00000 0.31154
138464.00000 0.31186
138649.00000 0.31183
138834.00000 0.31306
139020.00000 0.31332
139207.00000 0.31279
139394.00000 0.3129
139582.00000 0.31326
139770.00000 0.31394
139958.00000 0.31421
140148.00000 0.31219
140337.00000 0.30967
140527.00000 0.30783
140718.00000 0.30605
140909.00000 0.30456
141101.00000 0.30171
141293.00000 0.29644
141486.00000 0.28948
141679.00000 0.2682
141873.00000 0.23224
142067.00000 0.2039
142262.00000 0.18539
142458.00000 0.16908
142654.00000 0.1556
142850.00000 0.14302
143047.00000 0.1316
143245.00000 0.12227
143443.00000 0.11273
143642.00000 0.10336
143841.00000 0.095562
144041.00000 0.088145
144241.00000 0.081368
144442.00000 0.074453
144643.00000 0.066692
144845.00000 0.060416
145048.00000 0.054156
145251.00000 0.047546
145455.00000 0.041675
145659.00000 0.0356
145864.00000 0.030105
146069.00000 0.024358
146275.00000 0.018895
146482.00000 0.014747
146689.00000 0.009683
146897.00000 0.0043895
147105.00000 0.0014648
147314.00000 0.00022441
147524.00000 0.0
147734.00000 0.00021748
147945.00000 0.0
148156.00000 0.00080631
148368.00000 0.0077605
148580.00000 0.023029
148794.00000 0.048841
149007.00000 0.07916
149222.00000 0.10498
149437.00000 0.12523
149653.00000 0.14147
149869.00000 0.15238
150086.00000 0.15862
150303.00000 0.16297
150521.00000 0.16399
150740.00000 0.16204
150960.00000 0.15895
151180.00000 0.15366
151400.00000 0.14652
151622.00000 0.13749
151844.00000 0.12664
152066.00000 0.11269
152290.00000 0.095681
152514.00000 0.076324
152738.00000 0.045276
152963.00000 0.011518
153189.00000 0.0
153416.00000 0.00059138
153643.00000 0.00044065
153871.00000 0.0005238
154100.00000 0.00045312
154329.00000 0.00034701
154559.00000 0.00081257
154790.00000 6.3429e-05
155021.00000 0.00081097
155253.00000 0.00057992
155486.00000 4.9008e-05
155719.00000 3.483e-05
155954.00000 0.0005252
156189.00000 0.00052316
156424.00000 0.00013965
172066.40625 0.0
