# %ECSV 0.9
# ---
# datatype:
# - {name: wavelength, unit: Angstrom, datatype: float32}
# - {name: response, datatype: float32}
# meta: !!omap
# - {band_name: Y}
# - {group_name: MOIRCS}
wavelength response
8599.50000 0.0
9555.00000 0.004082
9557.50000 0.003868
9560.00000 0.003859
9562.50000 0.004085
9565.00000 0.00451
9567.50000 0.004691
9570.00000 0.004886
9572.50000 0.004969
9575.00000 0.005425
9577.50000 0.005265
9580.00000 0.005822
9582.50000 0.005705
9585.00000 0.006285
9587.50000 0.006141
9590.00000 0.007126
9592.50000 0.007201
9595.00000 0.007659
9597.50000 0.008233
9600.00000 0.008338
9602.50000 0.008774
9605.00000 0.009962
9607.50000 0.010125
9610.00000 0.010744
9612.50000 0.011381
9615.00000 0.012037
9617.50000 0.013399
9620.00000 0.013641
9622.50000 0.014429
9625.00000 0.015088
9627.50000 0.01645
9630.00000 0.017575
9632.50000 0.018412
9635.00000 0.019274
9637.50000 0.021288
9640.00000 0.02255
9642.50000 0.023846
9645.00000 0.025201
9647.50000 0.027191
9650.00000 0.029153
9652.50000 0.030364
9655.00000 0.03294
9657.50000 0.034994
9660.00000 0.036713
9662.50000 0.03984
9665.00000 0.042148
9667.50000 0.045057
9670.00000 0.047918
9672.50000 0.051284
9675.00000 0.054334
9677.50000 0.057614
9680.00000 0.061925
9682.50000 0.065902
9685.00000 0.070924
9687.50000 0.075185
9690.00000 0.08082
9692.50000 0.085565
9695.00000 0.090936
9697.50000 0.098136
9700.00000 0.103927
9702.50000 0.111687
9705.00000 0.119271
9707.50000 0.128138
9710.00000 0.136359
9712.50000 0.145912
9715.00000 0.157816
9717.50000 0.168515
9720.00000 0.180464
9722.50000 0.1931
9725.00000 0.206874
9727.50000 0.221779
9730.00000 0.236187
9732.50000 0.256368
9735.00000 0.272422
9737.50000 0.291145
9740.00000 0.311846
9742.50000 0.333507
9745.00000 0.355519
9747.50000 0.376957
9750.00000 0.406203
9752.50000 0.428951
9755.00000 0.454153
9757.50000 0.483371
9760.00000 0.509713
9762.50000 0.537929
9765.00000 0.564289
9767.50000 0.595779
9770.00000 0.621635
9772.50000 0.646838
9775.00000 0.677244
9777.50000 0.700295
9780.00000 0.725755
9782.50000 0.748061
9785.00000 0.771043
9787.50000 0.791047
9790.00000 0.807878
9792.50000 0.827547
9795.00000 0.841838
9797.50000 0.856056
9800.00000 0.868122
9802.50000 0.879279
9805.00000 0.888867
9807.50000 0.895988
9810.00000 0.905031
9812.50000 0.910398
9815.00000 0.915293
9817.50000 0.919642
9820.00000 0.92331
9822.50000 0.925876
9825.00000 0.927996
9827.50000 0.930332
9830.00000 0.931093
9832.50000 0.932387
9835.00000 0.933385
9837.50000 0.9342
9840.00000 0.934847
9842.50000 0.935331
9845.00000 0.93594
9847.50000 0.93675
9850.00000 0.936804
9852.50000 0.93749
9855.00000 0.938284
9857.50000 0.938381
9860.00000 0.938778
9862.50000 0.939339
9865.00000 0.939765
9867.50000 0.940363
9870.00000 0.941054
9872.50000 0.941729
9875.00000 0.94175
9877.50000 0.942442
9880.00000 0.943554
9882.50000 0.943983
9885.00000 0.944302
9887.50000 0.945554
9890.00000 0.945618
9892.50000 0.946243
9895.00000 0.946727
9897.50000 0.946952
9900.00000 0.947461
9902.50000 0.947841
9905.00000 0.948537
9907.50000 0.9488
9910.00000 0.948891
9912.50000 0.949291
9915.00000 0.949749
9917.50000 0.949328
9920.00000 0.949843
9922.50000 0.95002
9925.00000 0.949757
9927.50000 0.950528
9930.00000 0.95022
9932.50000 0.951011
9935.00000 0.950805
9937.50000 0.950906
9940.00000 0.95096
9942.50000 0.951303
9945.00000 0.951504
9947.50000 0.951293
9950.00000 0.95138
9952.50000 0.95112
9955.00000 0.951096
9957.50000 0.95172
9960.00000 0.951512
9962.50000 0.951524
9965.00000 0.95212
9967.50000 0.951622
9970.00000 0.951873
9972.50000 0.952232
9975.00000 0.952088
9977.50000 0.951998
9980.00000 0.9521
9982.50000 0.951808
9985.00000 0.951928
9987.50000 0.952086
9990.00000 0.952115
9992.50000 0.952132
9995.00000 0.952065
9997.50000 0.952452
10000.00000 0.952416
10002.50000 0.951815
10005.00000 0.952119
10007.50000 0.951509
10010.00000 0.951471
10012.50000 0.951002
10015.00000 0.950971
10017.50000 0.950735
10020.00000 0.950733
10022.50000 0.950182
10025.00000 0.949895
10027.50000 0.949794
10030.00000 0.949326
10032.50000 0.948864
10035.00000 0.948613
10037.50000 0.947877
10040.00000 0.947955
10042.50000 0.947175
10045.00000 0.947166
10047.50000 0.946511
10050.00000 0.94609
10052.50000 0.945258
10055.00000 0.945011
10057.50000 0.944606
10060.00000 0.94376
10062.50000 0.943102
10065.00000 0.943034
10067.50000 0.942184
10070.00000 0.941967
10072.50000 0.94128
10075.00000 0.940896
10077.50000 0.940419
10080.00000 0.940108
10082.50000 0.9395
10085.00000 0.939435
10087.50000 0.938735
10090.00000 0.938337
10092.50000 0.937739
10095.00000 0.937597
10097.50000 0.937016
10100.00000 0.936781
10102.50000 0.936712
10105.00000 0.936163
10107.50000 0.935962
10110.00000 0.935942
10112.50000 0.935438
10115.00000 0.935647
10117.50000 0.935238
10120.00000 0.935035
10122.50000 0.935075
10125.00000 0.935324
10127.50000 0.934503
10130.00000 0.935036
10132.50000 0.935042
10135.00000 0.934553
10137.50000 0.934927
10140.00000 0.934901
10142.50000 0.935191
10145.00000 0.935432
10147.50000 0.934709
10150.00000 0.935035
10152.50000 0.935448
10155.00000 0.935563
10157.50000 0.935566
10160.00000 0.935485
10162.50000 0.935809
10165.00000 0.936586
10167.50000 0.93654
10170.00000 0.936992
10172.50000 0.937045
10175.00000 0.937102
10177.50000 0.937117
10180.00000 0.93764
10182.50000 0.938239
10185.00000 0.938204
10187.50000 0.938614
10190.00000 0.939277
10192.50000 0.939232
10195.00000 0.939467
10197.50000 0.940014
10200.00000 0.940159
10202.50000 0.940611
10205.00000 0.940799
10207.50000 0.940865
10210.00000 0.941935
10212.50000 0.941817
10215.00000 0.942064
10217.50000 0.942567
10220.00000 0.942604
10222.50000 0.943321
10225.00000 0.943557
10227.50000 0.943977
10230.00000 0.94393
10232.50000 0.9446
10235.00000 0.945061
10237.50000 0.944974
10240.00000 0.945743
10242.50000 0.945915
10245.00000 0.94586
10247.50000 0.946058
10250.00000 0.946479
10252.50000 0.946832
10255.00000 0.946888
10257.50000 0.94721
10260.00000 0.94756
10262.50000 0.94735
10265.00000 0.947658
10267.50000 0.947602
10270.00000 0.948129
10272.50000 0.94763
10275.00000 0.948054
10277.50000 0.948291
10280.00000 0.947606
10282.50000 0.94823
10285.00000 0.948382
10287.50000 0.948627
10290.00000 0.948555
10292.50000 0.948402
10295.00000 0.94838
10297.50000 0.948043
10300.00000 0.948686
10302.50000 0.948532
10305.00000 0.948224
10307.50000 0.948532
10310.00000 0.948279
10312.50000 0.948598
10315.00000 0.948304
10317.50000 0.948346
10320.00000 0.948322
10322.50000 0.948429
10325.00000 0.948105
10327.50000 0.948036
10330.00000 0.948111
10332.50000 0.948112
10335.00000 0.948109
10337.50000 0.947989
10340.00000 0.947895
10342.50000 0.947705
10345.00000 0.947821
10347.50000 0.948224
10350.00000 0.948238
10352.50000 0.947606
10355.00000 0.94824
10357.50000 0.948243
10360.00000 0.948067
10362.50000 0.948436
10365.00000 0.948125
10367.50000 0.948312
10370.00000 0.948073
10372.50000 0.948376
10375.00000 0.948562
10377.50000 0.948291
10380.00000 0.948476
10382.50000 0.948702
10385.00000 0.948729
10387.50000 0.949057
10390.00000 0.949341
10392.50000 0.949135
10395.00000 0.949392
10397.50000 0.949426
10400.00000 0.949746
10402.50000 0.949909
10405.00000 0.949805
10407.50000 0.949951
10410.00000 0.949938
10412.50000 0.950164
10415.00000 0.950296
10417.50000 0.950447
10420.00000 0.950319
10422.50000 0.950598
10425.00000 0.950452
10427.50000 0.950561
10430.00000 0.950397
10432.50000 0.950628
10435.00000 0.950942
10437.50000 0.950593
10440.00000 0.95072
10442.50000 0.950669
10445.00000 0.95058
10447.50000 0.951067
10450.00000 0.950346
10452.50000 0.950596
10455.00000 0.95044
10457.50000 0.950578
10460.00000 0.950453
10462.50000 0.950028
10465.00000 0.949606
10467.50000 0.949701
10470.00000 0.949582
10472.50000 0.94902
10475.00000 0.949091
10477.50000 0.948911
10480.00000 0.948526
10482.50000 0.9482
10485.00000 0.948178
10487.50000 0.947212
10490.00000 0.946988
10492.50000 0.946585
10495.00000 0.946494
10497.50000 0.945781
10500.00000 0.945902
10502.50000 0.94544
10505.00000 0.944444
10507.50000 0.944041
10510.00000 0.943791
10512.50000 0.943214
10515.00000 0.942855
10517.50000 0.942275
10520.00000 0.942054
10522.50000 0.941537
10525.00000 0.94107
10527.50000 0.94077
10530.00000 0.939897
10532.50000 0.940226
10535.00000 0.938713
10537.50000 0.939193
10540.00000 0.938262
10542.50000 0.938046
10545.00000 0.93785
10547.50000 0.937528
10550.00000 0.937134
10552.50000 0.936533
10555.00000 0.93688
10557.50000 0.936086
10560.00000 0.936422
10562.50000 0.936257
10565.00000 0.936009
10567.50000 0.936097
10570.00000 0.935998
10572.50000 0.936172
10575.00000 0.935994
10577.50000 0.936089
10580.00000 0.936576
10582.50000 0.936845
10585.00000 0.937725
10587.50000 0.937856
10590.00000 0.938398
10592.50000 0.939169
10595.00000 0.939284
10597.50000 0.940105
10600.00000 0.940534
10602.50000 0.941294
10605.00000 0.942422
10607.50000 0.943277
10610.00000 0.944162
10612.50000 0.944604
10615.00000 0.94558
10617.50000 0.946285
10620.00000 0.947276
10622.50000 0.948068
10625.00000 0.948653
10627.50000 0.949284
10630.00000 0.949219
10632.50000 0.94961
10635.00000 0.94978
10637.50000 0.949818
10640.00000 0.948878
10642.50000 0.948245
10645.00000 0.947383
10647.50000 0.946049
10650.00000 0.943963
10652.50000 0.942012
10655.00000 0.939224
10657.50000 0.935346
10660.00000 0.931003
10662.50000 0.926856
10665.00000 0.920288
10667.50000 0.914399
10670.00000 0.907319
10672.50000 0.898953
10675.00000 0.890315
10677.50000 0.879748
10680.00000 0.869176
10682.50000 0.854997
10685.00000 0.84207
10687.50000 0.829222
10690.00000 0.812677
10692.50000 0.797268
10695.00000 0.778979
10697.50000 0.762179
10700.00000 0.740389
10702.50000 0.721606
10705.00000 0.70298
10707.50000 0.678109
10710.00000 0.657547
10712.50000 0.633887
10715.00000 0.612157
10717.50000 0.586967
10720.00000 0.565118
10722.50000 0.544206
10725.00000 0.51636
10727.50000 0.49517
10730.00000 0.471588
10732.50000 0.44969
10735.00000 0.425404
10737.50000 0.40492
10740.00000 0.385758
10742.50000 0.361734
10745.00000 0.344043
10747.50000 0.324719
10750.00000 0.306158
10752.50000 0.288433
10755.00000 0.271908
10757.50000 0.257736
10760.00000 0.239677
10762.50000 0.226851
10765.00000 0.213279
10767.50000 0.199648
10770.00000 0.187409
10772.50000 0.175831
10775.00000 0.165911
10777.50000 0.153799
10780.00000 0.144842
10782.50000 0.136416
10785.00000 0.127377
10787.50000 0.119524
10790.00000 0.111697
10792.50000 0.105128
10795.00000 0.097818
10797.50000 0.092006
10800.00000 0.08647
10802.50000 0.080478
10805.00000 0.075871
10807.50000 0.071262
10810.00000 0.066483
10812.50000 0.0624
10815.00000 0.058821
10817.50000 0.055465
10820.00000 0.051728
10822.50000 0.04829
10825.00000 0.045749
10827.50000 0.043197
10830.00000 0.039926
10832.50000 0.038285
10835.00000 0.035866
10837.50000 0.033525
10840.00000 0.031786
10842.50000 0.030259
10845.00000 0.028512
10847.50000 0.026927
10850.00000 0.025374
10852.50000 0.023668
10855.00000 0.022334
10857.50000 0.021426
10860.00000 0.020423
10862.50000 0.019
10865.00000 0.018652
10867.50000 0.017125
10870.00000 0.01595
10872.50000 0.014989
10875.00000 0.014641
10877.50000 0.013824
10880.00000 0.013316
10882.50000 0.012427
10885.00000 0.012213
10887.50000 0.011635
10890.00000 0.011011
10892.50000 0.01064
10895.00000 0.010139
10897.50000 0.009854
10900.00000 0.00932
10902.50000 0.008847
10905.00000 0.008452
10907.50000 0.008458
10910.00000 0.007877
10912.50000 0.007754
10915.00000 0.007217
10917.50000 0.007137
10920.00000 0.006588
10922.50000 0.006106
10925.00000 0.006213
10927.50000 0.006155
10930.00000 0.005863
10932.50000 0.00521
10935.00000 0.005545
10937.50000 0.005579
10940.00000 0.005359
10942.50000 0.004891
10945.00000 0.004998
10947.50000 0.004624
10950.00000 0.004867
10952.50000 0.004515
10955.00000 0.004667
10957.50000 0.00414
10960.00000 0.004238
12056.00000 0.0
