# %ECSV 0.9
# ---
# datatype:
# - {name: wavelength, unit: Angstrom, datatype: float32}
# - {name: response, datatype: float32}
# meta: !!omap
# - {band_name: sloan_z}
# - {group_name: IMACS}
wavelength response
7271.00977 0.0
8078.89990 0.00083
8082.10010 0.00089
8085.20020 0.00064
8088.39990 0.00061
8091.60010 0.00093
8094.79980 0.00099
8097.89990 0.0011
8101.10010 0.00176
8104.29980 0.00217
8107.39990 0.00247
8110.60010 0.00284
8113.70020 0.00334
8116.89990 0.00419
8120.10010 0.00498
8123.20020 0.00564
8126.39990 0.00679
8129.60010 0.00804
8132.70020 0.00831
8135.89990 0.00884
8139.10010 0.00953
8142.20020 0.00968
8145.39990 0.00972
8148.50000 0.00987
8151.70020 0.01002
8154.89990 0.01027
8158.00000 0.01133
8161.20020 0.01279
8164.29980 0.01423
8167.50000 0.01604
8170.60010 0.01778
8173.79980 0.01896
8177.00000 0.01956
8180.10010 0.02046
8183.29980 0.0223
8186.39990 0.02419
8189.60010 0.02595
8192.70020 0.02781
8195.90039 0.02984
8199.00000 0.03199
8202.20020 0.03402
8205.40039 0.03651
8208.50000 0.03917
8211.70020 0.04268
8214.79980 0.04494
8218.00000 0.04752
8221.09961 0.05118
8224.29980 0.05545
8227.40039 0.05957
8230.59961 0.06372
8233.70020 0.06922
8236.90039 0.0749
8240.00000 0.08037
8243.20020 0.08692
8246.29980 0.0937
8249.40039 0.10033
8252.59961 0.10712
8255.70020 0.11582
8258.90039 0.12363
8262.00000 0.13353
8265.20020 0.14434
8268.29980 0.15546
8271.50000 0.16613
8274.59961 0.17867
8277.70020 0.19137
8280.90039 0.20482
8284.00000 0.21844
8287.20020 0.23467
8290.29980 0.25042
8293.50000 0.26728
8296.59961 0.28455
8299.70020 0.30384
8302.90039 0.3229
8306.00000 0.3436
8309.09961 0.36446
8312.29980 0.3855
8315.40039 0.4085
8318.59961 0.43129
8321.70020 0.45305
8324.79980 0.47523
8328.00000 0.49761
8331.09961 0.5194
8334.20020 0.54179
8337.40039 0.5651
8340.50000 0.58808
8343.59961 0.61125
8346.79980 0.63362
8349.90039 0.65414
8353.00000 0.67311
8356.20020 0.69235
8359.29980 0.71094
8362.40039 0.72763
8365.59961 0.74558
8368.70020 0.76132
8371.79980 0.77605
8374.90039 0.79086
8378.09961 0.80435
8381.20020 0.81659
8384.29980 0.82946
8387.50000 0.8407
8390.59961 0.84957
8393.70020 0.8589
8396.79980 0.86781
8400.00000 0.87536
8403.09961 0.88215
8406.20020 0.89043
8409.29980 0.8979
8412.50000 0.9027
8415.59961 0.90812
8418.70020 0.9142
8421.79980 0.91768
8425.00000 0.92117
8428.09961 0.9256
8431.20020 0.92751
8434.29980 0.92949
8437.40039 0.93251
8440.59961 0.93372
8443.70020 0.93458
8446.79980 0.93579
8449.90039 0.93765
8453.00000 0.93827
8456.20020 0.93931
8459.29980 0.93939
8462.40039 0.9408
8465.50000 0.9415
8468.59961 0.94186
8471.70020 0.94244
8474.90039 0.94453
8478.00000 0.94633
8481.09961 0.94653
8484.20020 0.94638
8487.29980 0.94786
8490.40039 0.94802
8493.50000 0.94753
8496.59961 0.94672
8499.79980 0.94662
8502.90039 0.94616
8506.00000 0.94607
8509.09961 0.94591
8512.20020 0.9463
8515.29980 0.94791
8518.40039 0.94829
8521.50000 0.94792
8524.59961 0.9473
8527.70020 0.94753
8530.90039 0.94793
8534.00000 0.94711
8537.09961 0.947
8540.20020 0.94701
8543.29980 0.94552
8546.40039 0.94393
8549.50000 0.94439
8552.59961 0.94498
8555.70020 0.94434
8558.79980 0.94589
8561.90039 0.94575
8565.00000 0.94519
8568.09961 0.94448
8571.20020 0.94468
8574.29980 0.94361
8577.40039 0.94372
8580.50000 0.94395
8583.59961 0.94433
8586.70020 0.94496
8589.79980 0.94503
8592.90039 0.94496
8596.00000 0.94495
8599.09961 0.94398
8602.20020 0.94214
8605.29980 0.94253
8608.40039 0.9421
8611.50000 0.94138
8614.59961 0.94247
8617.70020 0.94418
8620.79980 0.94654
8623.90039 0.9469
8627.00000 0.94731
8630.09961 0.94635
8633.20020 0.94772
8636.20020 0.9456
8639.29980 0.94479
8642.40039 0.94469
8645.50000 0.94628
8648.59961 0.94409
8651.70020 0.9435
8654.79980 0.94403
8657.90039 0.94434
8661.00000 0.94364
8664.09961 0.94397
8667.09961 0.94363
8670.20020 0.94436
8673.29980 0.94286
8676.40039 0.94276
8679.50000 0.94275
8682.59961 0.943
8685.70020 0.94209
8688.79980 0.94403
8691.79980 0.94245
8694.90039 0.93996
8698.00000 0.94119
8701.09961 0.94077
8704.20020 0.93954
8707.29980 0.93958
8710.29980 0.94239
8713.40039 0.94016
8716.50000 0.93975
8719.59961 0.94047
8722.70020 0.94036
8725.70020 0.941
8728.79980 0.94273
8731.90039 0.94343
8735.00000 0.94464
8738.09961 0.94441
8741.09961 0.94439
8744.20020 0.94315
8747.29980 0.94529
8750.40039 0.94405
8753.40039 0.94509
8756.50000 0.94303
8759.59961 0.94396
8762.70020 0.94241
8765.70020 0.94125
8768.79980 0.94368
8771.90039 0.94517
8775.00000 0.94571
8778.00000 0.94525
8781.09961 0.94508
8784.20020 0.94377
8787.29980 0.94372
8790.29980 0.94352
8793.40039 0.94399
8796.50000 0.94398
8799.50000 0.94344
8802.59961 0.94401
8805.70020 0.94358
8808.70020 0.94423
8811.79980 0.94465
8814.90039 0.94335
8817.90039 0.94146
8821.00000 0.94026
8824.09961 0.93958
8827.09961 0.94167
8830.20020 0.93954
8833.29980 0.9407
8836.29980 0.94158
8839.40039 0.94125
8842.50000 0.93904
8845.50000 0.94119
8848.59961 0.94101
8851.59961 0.94097
8854.70020 0.94136
8857.79980 0.94144
8860.79980 0.94235
8863.90039 0.94176
8867.00000 0.94221
8870.00000 0.94102
8873.09961 0.94241
8876.09961 0.9412
8879.20020 0.94172
8882.20020 0.94081
8885.29980 0.9424
8888.40039 0.93924
8891.40039 0.94051
8894.50000 0.94085
8897.50000 0.94163
8900.59961 0.941
8903.59961 0.94175
8906.70020 0.9422
8909.70020 0.94176
8912.79980 0.94188
8915.90039 0.94191
8918.90039 0.9421
8922.00000 0.94146
8925.00000 0.94197
8928.09961 0.94262
8931.09961 0.9435
8934.20020 0.94356
8937.20020 0.94336
8940.29980 0.94256
8943.29980 0.94069
8946.40039 0.93952
8949.40039 0.93943
8952.50000 0.93841
8955.50000 0.93949
8958.50000 0.94158
8961.59961 0.94301
8964.59961 0.94498
8967.70020 0.94834
8970.70020 0.94928
8973.79980 0.94705
8976.79980 0.94673
8979.90039 0.94656
8982.90039 0.94256
8986.00000 0.93962
8989.00000 0.94014
8992.00000 0.93937
8995.09961 0.93842
8998.09961 0.93991
9001.20020 0.94143
9004.20020 0.94236
9007.20020 0.94262
9010.29980 0.94498
9013.29980 0.94477
9016.40039 0.94661
9019.40039 0.9465
9022.40039 0.94592
9025.50000 0.94496
9028.50000 0.94617
9031.50000 0.94478
9034.59961 0.94389
9037.59961 0.94448
9040.70020 0.94509
9043.70020 0.94499
9046.70020 0.94448
9049.79980 0.94405
9052.79980 0.94525
9055.79980 0.94609
9058.90039 0.94661
9061.90039 0.94577
9064.90039 0.94673
9067.90039 0.9468
9071.00000 0.9465
9074.00000 0.94764
9077.00000 0.9483
9080.09961 0.94916
9083.09961 0.94908
9086.09961 0.94742
9089.20020 0.94654
9092.20020 0.94696
9095.20020 0.94797
9098.20020 0.94695
9101.29980 0.94599
9104.29980 0.94605
9107.29980 0.94592
9110.29980 0.94324
9113.40039 0.9432
9116.40039 0.94335
9119.40039 0.94262
9122.40039 0.94493
9125.50000 0.94732
9128.50000 0.94795
9131.50000 0.94923
9134.50000 0.94803
9137.50000 0.946
9140.59961 0.94261
9143.59961 0.94097
9146.59961 0.94074
9149.59961 0.94031
9152.59961 0.94093
9155.70020 0.94448
9158.70020 0.94771
9161.70020 0.94822
9164.70020 0.95116
9167.70020 0.9512
9170.79980 0.95021
9173.79980 0.9487
9176.79980 0.94808
9179.79980 0.94824
9182.79980 0.94909
9185.79980 0.94826
9188.79980 0.94892
9191.90039 0.94853
9194.90039 0.94731
9197.90039 0.94622
9200.90039 0.94844
9203.90039 0.94866
9206.90039 0.94733
9209.90039 0.94421
9212.90039 0.94285
9215.90039 0.94173
9219.00000 0.93878
9222.00000 0.9413
9225.00000 0.94438
9228.00000 0.94427
9231.00000 0.9439
9234.00000 0.94301
9237.00000 0.94168
9240.00000 0.94157
9243.00000 0.94267
9246.00000 0.94296
9249.00000 0.94589
9252.00000 0.94671
9255.00000 0.94758
9258.00000 0.94597
9261.00000 0.94562
9264.00000 0.94334
9267.09961 0.94336
9270.09961 0.94299
9273.09961 0.94375
9276.09961 0.94278
9279.09961 0.94546
9282.09961 0.94623
9285.09961 0.94501
9288.09961 0.94502
9291.09961 0.94568
9294.09961 0.9454
9297.09961 0.94444
9300.00000 0.9454
9303.00000 0.94783
9306.00000 0.94865
9309.00000 0.94833
9312.00000 0.94856
9315.00000 0.94777
9318.00000 0.94617
9321.00000 0.94452
9324.00000 0.94296
9327.00000 0.9415
9330.00000 0.94438
9333.00000 0.94568
9336.00000 0.94608
9339.00000 0.94775
9342.00000 0.94989
9345.00000 0.94944
9348.00000 0.95064
9350.90039 0.9522
9353.90039 0.95118
9356.90039 0.95019
9359.90039 0.94913
9362.90039 0.94664
9365.90039 0.94501
9368.90039 0.94325
9371.90039 0.9434
9374.90039 0.94298
9377.79980 0.94334
9380.79980 0.94292
9383.79980 0.94607
9386.79980 0.94326
9389.79980 0.94303
9392.79980 0.94542
9395.70020 0.94648
9398.70020 0.94616
9401.70020 0.94883
9404.70020 0.94882
9407.70020 0.94719
9410.70020 0.95297
9413.59961 0.95053
9416.59961 0.9527
9419.59961 0.94649
9422.59961 0.94474
9425.59961 0.93783
9428.50000 0.94022
9431.50000 0.93345
9434.50000 0.93303
9437.50000 0.92832
9440.50000 0.92765
9443.40039 0.92581
9446.40039 0.93128
9449.40039 0.93702
9452.40039 0.93757
9455.29980 0.93785
9458.29980 0.94163
9461.29980 0.9429
9464.29980 0.94349
9467.20020 0.94483
9470.20020 0.94828
9473.20020 0.94172
9476.09961 0.94071
9479.09961 0.93882
9482.09961 0.94147
9485.09961 0.9398
9488.00000 0.94259
9491.00000 0.94726
9494.00000 0.946
9496.90039 0.9445
9499.90039 0.95019
9502.90039 0.94599
9505.79980 0.9429
9508.79980 0.94685
9511.79980 0.94696
9514.70020 0.93908
9517.70020 0.94448
9520.70020 0.94194
9523.59961 0.94186
9526.59961 0.94437
9529.59961 0.94644
9532.50000 0.94454
9535.50000 0.94678
9538.50000 0.94645
9541.40039 0.94457
9544.40039 0.94399
9547.29980 0.94448
9550.29980 0.9435
9553.29980 0.94344
9556.20020 0.9428
9559.20020 0.94367
9562.09961 0.94198
9565.09961 0.94287
9568.09961 0.9416
9571.00000 0.9431
9574.00000 0.94264
9576.90039 0.94524
9579.90039 0.94565
9582.90039 0.94453
9585.79980 0.94227
9588.79980 0.94577
9591.70020 0.94802
9594.70020 0.94772
9597.59961 0.95036
9600.59961 0.95493
9603.50000 0.95582
9606.50000 0.95411
9609.40039 0.95254
9612.40039 0.95109
9615.29980 0.94722
9618.29980 0.94549
9621.20020 0.94701
9624.20020 0.94895
9627.09961 0.9507
9630.09961 0.95272
9633.00000 0.95368
9636.00000 0.95179
9638.90039 0.95174
9641.90039 0.95209
9644.79980 0.95492
9647.79980 0.95278
9650.70020 0.95417
9653.70020 0.95454
9656.59961 0.95718
9659.59961 0.95367
9662.50000 0.95463
9665.50000 0.95259
9668.40039 0.95243
9671.29980 0.94985
9674.29980 0.95052
9677.20020 0.94979
9680.20020 0.94974
9683.09961 0.94783
9686.09961 0.9484
9689.00000 0.94789
9691.90039 0.94693
9694.90039 0.94918
9697.79980 0.95167
9700.79980 0.95049
9703.70020 0.95014
9706.59961 0.95014
9709.59961 0.95013
9712.50000 0.94528
9715.40039 0.94506
9718.40039 0.94885
9721.29980 0.95091
9724.29980 0.94805
9727.20020 0.95281
9730.09961 0.95274
9733.09961 0.94866
9736.00000 0.94876
9738.90039 0.95143
9741.90039 0.94872
9744.79980 0.94921
9747.70020 0.95044
9750.70020 0.95075
9753.59961 0.95147
9756.50000 0.95339
9759.40039 0.95437
9762.40039 0.95531
9765.29980 0.95674
9768.20020 0.95486
9771.20020 0.95433
9774.09961 0.95157
9777.00000 0.94942
9779.90039 0.94562
9782.90039 0.9464
9785.79980 0.94798
9788.70020 0.9509
9791.59961 0.95305
9794.59961 0.95669
9797.50000 0.9565
9800.40039 0.95746
9803.29980 0.9565
9806.29980 0.95462
9809.20020 0.9511
9812.09961 0.94937
9815.00000 0.94485
9818.00000 0.9432
9820.90039 0.94279
9823.79980 0.94134
9826.70020 0.94527
9829.59961 0.9485
9832.59961 0.94664
9835.50000 0.94514
9838.40039 0.94929
9841.29980 0.94897
9844.20020 0.94934
9847.20020 0.95507
9850.09961 0.95707
9853.00000 0.95524
9855.90039 0.95289
9858.79980 0.95122
9861.70020 0.94905
9864.59961 0.94883
9867.59961 0.95067
9870.50000 0.95066
9873.40039 0.95139
9876.29980 0.95058
9879.20020 0.95291
9882.09961 0.95163
9885.00000 0.95137
9887.90039 0.95284
9890.90039 0.95475
9893.79980 0.95661
9896.70020 0.95896
9899.59961 0.96253
9902.50000 0.96393
9905.40039 0.96311
9908.29980 0.96074
9911.20020 0.95794
9914.09961 0.95676
9917.00000 0.95478
9919.90039 0.95541
9922.79980 0.95461
9925.79980 0.9591
9928.70020 0.95797
9931.59961 0.95468
9934.50000 0.95352
9937.40039 0.95489
9940.29980 0.9515
9943.20020 0.95191
9946.09961 0.95666
9949.00000 0.95622
9951.90039 0.95793
9954.79980 0.96277
9957.70020 0.96482
9960.59961 0.96347
9963.50000 0.96312
9966.40039 0.96391
9969.29980 0.96069
9972.20020 0.95903
9975.09961 0.95675
9978.00000 0.9564
9980.90039 0.95168
9983.79980 0.94892
9986.70020 0.94772
9989.59961 0.94818
9992.50000 0.94941
9995.40039 0.95572
9998.29980 0.9626
10001.09961 0.96473
10004.00000 0.96735
10006.90039 0.96773
10009.79980 0.96312
10012.70020 0.95678
10015.59961 0.95656
10018.50000 0.95237
10021.40039 0.95763
10024.29980 0.95821
10027.20020 0.9655
10030.09961 0.96661
10033.00000 0.96798
10035.79980 0.9632
10038.70020 0.96221
10041.59961 0.95547
10044.50000 0.95529
10047.40039 0.95985
10050.29980 0.9611
10053.20020 0.96012
10056.09961 0.95698
10058.90039 0.95473
10061.79980 0.95147
10064.70020 0.94984
10067.59961 0.94966
10070.50000 0.95455
10073.40039 0.95927
10076.20020 0.95795
10079.09961 0.96222
10082.00000 0.96312
10084.90039 0.95884
10087.79980 0.95514
10090.70020 0.95754
10093.50000 0.95235
10096.40039 0.94925
10099.29980 0.95432
10102.20020 0.96042
10105.00000 0.96624
10107.90039 0.97251
10110.79980 0.9806
10113.70020 0.97916
10116.59961 0.97204
10119.40039 0.96083
10122.29980 0.94897
10125.20020 0.94363
10128.09961 0.94787
10130.90039 0.94937
10133.79980 0.95854
10136.70020 0.96709
10139.59961 0.96979
10142.40039 0.95786
10145.29980 0.94996
10148.20020 0.94107
10151.00000 0.92974
10153.90039 0.92774
10156.79980 0.93764
10159.70020 0.94339
10162.50000 0.95049
10165.40039 0.95992
10168.29980 0.96144
10171.09961 0.96155
10174.00000 0.96991
10176.90039 0.96953
10179.70020 0.96851
10182.59961 0.96419
10185.50000 0.95153
10188.29980 0.9423
10191.20020 0.9394
10194.09961 0.93565
10196.90039 0.94103
10199.79980 0.95321
10202.70020 0.95915
10205.50000 0.96353
10208.40039 0.96891
10211.20020 0.96059
10214.09961 0.95133
10217.00000 0.94836
10219.79980 0.94077
10222.70020 0.94252
10225.59961 0.95023
10228.40039 0.95889
10231.29980 0.95505
10234.09961 0.96392
10237.00000 0.96356
10239.79980 0.96607
10242.70020 0.97012
10245.59961 0.97104
10248.40039 0.96542
10251.29980 0.96037
10254.09961 0.95968
10257.00000 0.94745
10259.79980 0.94151
10262.70020 0.93961
10265.59961 0.9417
10268.40039 0.93016
10271.29980 0.93852
10274.09961 0.94628
10277.00000 0.95354
10279.79980 0.95095
10282.70020 0.9542
10285.50000 0.95509
10288.40039 0.95542
10291.20020 0.94701
10294.09961 0.94602
10296.90039 0.9435
10299.79980 0.93096
10302.59961 0.92166
10305.50000 0.92045
10308.29980 0.91483
10311.20020 0.91563
10314.00000 0.924
10316.90039 0.93615
10319.70020 0.94811
10322.50000 0.9649
10325.40039 0.97838
10328.20020 0.98102
10331.09961 0.98606
10333.90039 0.98462
10336.79980 0.97866
10339.59961 0.97461
10342.50000 0.98208
10345.29980 0.96664
10348.09961 0.94702
10351.00000 0.93525
10353.79980 0.92101
10356.70020 0.89534
10359.50000 0.89003
10362.29980 0.89165
10365.20020 0.8962
10368.00000 0.90798
10370.90039 0.93004
10373.70020 0.9499
10376.50000 0.9732
10379.40039 0.98697
10382.20020 0.99591
10385.00000 0.99791
10387.90039 0.99558
10390.70020 0.98766
10393.50000 0.98855
10396.40039 0.96806
10399.20020 0.96549
10402.00000 0.96385
10404.90039 0.95897
10407.70020 0.94564
10410.50000 0.9533
10413.40039 0.93569
10416.20020 0.9323
10419.00000 0.92693
10421.90039 0.91851
10424.70020 0.92562
10427.50000 0.9339
10430.40039 0.93075
10433.20020 0.93097
10436.00000 0.94258
10438.79980 0.94662
10441.70020 0.95504
10444.50000 0.96588
10447.29980 0.97378
10450.09961 0.98901
10453.00000 0.98818
10455.79980 0.99391
10458.59961 0.9977
10461.40039 1.00351
10464.29980 0.99239
10467.09961 0.99789
10469.90039 0.99486
10472.70020 0.986
10475.59961 0.97898
10478.40039 0.98048
10481.20020 0.96022
10484.00000 0.91694
10486.79980 0.90535
10489.70020 0.8924
10492.50000 0.88396
10495.29980 0.8887
10498.09961 0.93723
10500.90039 0.94236
10503.79980 0.94461
10506.59961 0.92456
10509.40039 0.92248
10512.20020 0.90103
10515.00000 0.9048
10517.79980 0.92219
10520.59961 0.9489
10523.50000 0.92595
10526.29980 0.94156
10529.09961 0.95324
10531.90039 0.95089
10534.70020 0.96371
10537.50000 0.9941
10540.29980 0.99685
10543.20020 0.99735
10546.00000 1.00634
10548.79980 1.00314
10551.59961 1.01131
10554.40039 0.99651
10557.20020 0.98318
10560.00000 0.97586
10562.79980 0.96584
10565.59961 0.94951
10568.40039 0.94349
10571.20020 0.9414
10574.09961 0.94085
10576.90039 0.91908
10579.70020 0.9213
10582.50000 0.94042
10585.29980 0.93483
10588.09961 0.89922
10590.90039 0.92079
10593.70020 0.88472
10596.50000 0.84629
10599.29980 0.85386
10602.09961 0.91016
10604.90039 0.91186
10607.70020 0.94581
10610.50000 0.99752
10613.29980 0.98915
10616.09961 0.94333
10618.90039 0.93782
10621.70020 0.94404
10624.50000 0.93641
10627.29980 0.94314
10630.09961 0.98095
10632.90039 0.9952
10635.70020 1.01418
10638.50000 1.01225
10641.29980 1.01034
10644.09961 0.99733
10646.90039 0.99774
10649.70020 0.99788
10652.50000 1.00017
10655.29980 1.00973
10658.09961 1.01333
10660.79980 0.99727
10663.59961 0.99894
10666.40039 0.99789
10669.20020 0.99285
10672.00000 0.98816
10674.79980 1.00388
10677.59961 1.0022
10680.40039 0.99277
10683.20020 1.00098
10686.00000 0.99209
10688.79980 0.98039
10691.50000 0.98268
10694.29980 0.99158
10697.09961 0.99205
10699.90039 1.00287
10702.70020 1.01899
10705.50000 0.98469
10708.29980 0.98891
10711.09961 0.98595
10713.79980 0.96016
10716.59961 0.95408
10719.40039 0.97832
10722.20020 0.95209
10725.00000 0.94546
10727.79980 0.95065
10730.50000 0.95256
10733.29980 0.96183
10736.09961 0.99695
10738.90039 0.98294
10741.70020 0.98687
10744.40039 0.94105
10747.20020 0.93029
10750.00000 0.864
10752.79980 0.8863
10755.59961 0.93473
10758.29980 0.97014
10761.09961 0.93053
10763.90039 0.91382
10766.70020 0.85399
10769.40039 0.81515
10772.20020 0.77179
10775.00000 0.8034
10777.79980 0.8458
10780.50000 0.82599
10783.29980 0.78623
10786.09961 0.81828
10788.90039 0.79901
10791.59961 0.76705
10794.40039 0.88241
10797.20020 0.92272
10800.00000 0.89381
10802.70020 0.92274
10805.50000 0.91681
10808.29980 0.87052
10811.00000 0.85048
10813.79980 0.84843
10816.59961 0.83464
10819.29980 0.8278
10822.09961 0.82988
10824.90039 0.81167
10827.59961 0.81495
10830.40039 0.78892
10833.20020 0.84558
10835.90039 0.80157
10838.70020 0.81014
10841.50000 0.84018
10844.20020 0.8737
10847.00000 0.90387
10849.79980 0.90148
10852.50000 0.93453
10855.29980 0.93156
10858.09961 0.95869
10860.79980 0.94013
10863.59961 1.03118
10866.29980 1.04971
10869.09961 1.07194
10871.90039 1.0489
10874.59961 1.0317
10877.40039 0.9715
10880.09961 0.93855
10882.90039 0.93954
10885.70020 0.94594
10888.40039 0.95808
10891.20020 1.00279
10893.90039 1.03358
10896.70020 1.03548
10899.40039 1.02695
10902.20020 1.03269
10905.00000 1.00561
10907.70020 1.0163
10910.50000 1.01299
10913.20020 1.01015
10916.00000 1.00806
10918.70020 1.0341
10921.50000 1.0258
10924.20020 1.02532
10927.00000 1.02448
10929.70020 1.02914
10932.50000 1.0219
10935.20020 1.03039
10938.00000 1.0258
10940.70020 1.03955
10943.50000 1.03634
10946.20020 1.0461
10949.00000 1.01339
10951.70020 1.03778
10954.50000 1.00201
10957.20020 1.00164
10960.00000 0.98818
10962.70020 1.01785
10965.50000 0.99456
10968.20020 1.00035
10970.90039 1.0007
10973.70020 1.01419
10976.40039 1.00955
10979.20020 1.01799
10981.90039 1.03615
10984.70020 1.01927
10987.40039 1.03021
10990.09961 0.97344
10992.90039 0.949
10995.59961 0.93619
10998.40039 0.94818
11001.09961 0.89241
11003.79980 0.90559
11006.59961 0.90841
11009.29980 0.88343
11012.09961 0.88782
11014.79980 0.92868
11017.50000 1.01773
11020.29980 1.01411
11023.00000 1.03281
11025.70020 1.02986
11028.50000 0.96744
11031.20020 0.92431
11033.90039 0.94201
11036.70020 0.98247
11039.40039 0.9459
11042.09961 0.98276
11044.90039 0.96514
11047.59961 0.90082
11050.29980 0.82537
11053.09961 0.81736
11055.79980 0.82851
11058.50000 0.83257
11061.29980 0.89537
11064.00000 0.92418
11066.70020 0.83734
11069.50000 0.88947
11072.20020 0.90632
11074.90039 0.8322
11077.59961 0.90681
11080.40039 1.02543
11083.09961 0.86084
11085.79980 0.79221
11088.50000 0.87571
11091.29980 0.81552
11094.00000 0.7569
11096.70020 0.82233
11099.40039 0.82097
11102.20020 0.79605
11104.90039 0.7265
11107.59961 0.76394
11110.29980 0.70273
11113.09961 0.69205
11115.79980 0.66926
11118.50000 0.61921
11121.20020 0.74475
11123.90039 0.78096
11126.70020 0.75067
11129.40039 0.66319
11132.09961 0.71433
11134.79980 0.55766
11137.50000 0.50167
11140.29980 0.58717
11143.00000 0.6607
11145.70020 0.62206
11148.40039 0.53411
11151.09961 0.57642
11153.79980 0.60377
11156.59961 0.64023
11159.29980 0.7908
11162.00000 0.98143
11164.70020 0.99109
11167.40039 1.17395
11170.09961 0.98995
11172.79980 0.69614
11175.50000 0.62444
11178.29980 0.47691
11181.00000 0.43833
11183.70020 0.56977
11186.40039 0.49122
11189.09961 0.49469
11191.79980 0.6172
11194.50000 0.5473
11197.20020 0.44516
11199.90039 0.52369
11202.59961 0.46304
12322.85938 0.0
