# %ECSV 0.9
# ---
# datatype:
# - {name: wavelength, unit: Angstrom, datatype: float32}
# - {name: response, datatype: float32}
# meta: !!omap
# - {band_name: Bessell_R1}
# - {group_name: IMACS}
wavelength response
4903.20020 0.0
5448.00000 0.001
5450.00000 0.0007
5451.00000 0.0007
5453.00000 0.0004
5454.00000 0.0003
5455.00000 0.0003
5457.00000 0.0003
5458.00000 0.0003
5459.00000 0.0005
5461.00000 0.0004
5462.00000 0.0006
5464.00000 0.0009
5465.00000 0.0008
5466.00000 0.0011
5468.00000 0.0014
5469.00000 0.0017
5470.00000 0.0016
5472.00000 0.0014
5473.00000 0.0011
5475.00000 0.0006
5476.00000 0.0003
5477.00000 0.0006
5479.00000 0.001
5480.00000 0.0013
5481.00000 0.0015
5483.00000 0.0015
5484.00000 0.0012
5485.00000 0.0013
5487.00000 0.0012
5488.00000 0.0012
5490.00000 0.0012
5491.00000 0.0014
5492.00000 0.0012
5494.00000 0.0012
5495.00000 0.0013
5496.00000 0.0011
5498.00000 0.0009
5499.00000 0.0007
5501.00000 0.0006
5502.00000 0.0009
5503.00000 0.0011
5505.00000 0.0015
5506.00000 0.0021
5507.00000 0.0021
5509.00000 0.0021
5510.00000 0.0019
5512.00000 0.0014
5513.00000 0.0012
5514.00000 0.0012
5516.00000 0.0008
5517.00000 0.0012
5518.00000 0.0014
5520.00000 0.0012
5521.00000 0.0016
5522.00000 0.0019
5524.00000 0.0015
5525.00000 0.0019
5527.00000 0.0026
5528.00000 0.0031
5529.00000 0.0033
5531.00000 0.0034
5532.00000 0.0043
5533.00000 0.0047
5535.00000 0.0051
5536.00000 0.0057
5537.00000 0.0086
5539.00000 0.0111
5540.00000 0.0131
5542.00000 0.0157
5543.00000 0.0191
5544.00000 0.0208
5546.00000 0.0212
5547.00000 0.0234
5548.00000 0.0248
5550.00000 0.0257
5551.00000 0.0263
5552.00000 0.0278
5554.00000 0.0284
5555.00000 0.0293
5557.00000 0.0293
5558.00000 0.0314
5559.00000 0.0322
5561.00000 0.0345
5562.00000 0.0377
5563.00000 0.0417
5565.00000 0.0461
5566.00000 0.0511
5567.00000 0.0544
5569.00000 0.0564
5570.00000 0.059
5572.00000 0.0595
5573.00000 0.0608
5574.00000 0.0623
5576.00000 0.0652
5577.00000 0.0701
5578.00000 0.0751
5580.00000 0.0803
5581.00000 0.0867
5582.00000 0.0918
5584.00000 0.0944
5585.00000 0.0969
5586.00000 0.1007
5588.00000 0.105
5589.00000 0.1087
5591.00000 0.115
5592.00000 0.1218
5593.00000 0.1274
5595.00000 0.132
5596.00000 0.1368
5597.00000 0.1399
5599.00000 0.1431
5600.00000 0.1468
5601.00000 0.1502
5603.00000 0.1567
5604.00000 0.1645
5605.00000 0.1717
5607.00000 0.1787
5608.00000 0.1854
5609.00000 0.1901
5611.00000 0.1943
5612.00000 0.2003
5614.00000 0.205
5615.00000 0.2115
5616.00000 0.2191
5618.00000 0.2257
5619.00000 0.2309
5620.00000 0.2368
5622.00000 0.2429
5623.00000 0.2479
5624.00000 0.256
5626.00000 0.265
5627.00000 0.2736
5628.00000 0.2818
5630.00000 0.2893
5631.00000 0.2947
5632.00000 0.2992
5634.00000 0.3042
5635.00000 0.3088
5636.00000 0.316
5638.00000 0.3255
5639.00000 0.3327
5641.00000 0.3414
5642.00000 0.3494
5643.00000 0.3566
5645.00000 0.3598
5646.00000 0.367
5647.00000 0.3705
5649.00000 0.3756
5650.00000 0.38
5651.00000 0.3878
5653.00000 0.3947
5654.00000 0.4035
5655.00000 0.4136
5657.00000 0.4225
5658.00000 0.4299
5659.00000 0.4356
5661.00000 0.442
5662.00000 0.4453
5663.00000 0.4496
5665.00000 0.452
5666.00000 0.4578
5667.00000 0.4626
5669.00000 0.4685
5670.00000 0.4763
5671.00000 0.4847
5673.00000 0.4904
5674.00000 0.4978
5675.00000 0.5059
5677.00000 0.513
5678.00000 0.5199
5679.00000 0.5268
5681.00000 0.5324
5682.00000 0.5357
5684.00000 0.5398
5685.00000 0.5436
5686.00000 0.5518
5688.00000 0.5579
5689.00000 0.5653
5690.00000 0.571
5692.00000 0.5777
5693.00000 0.5786
5694.00000 0.5831
5696.00000 0.5861
5697.00000 0.5912
5698.00000 0.5934
5700.00000 0.599
5701.00000 0.6038
5702.00000 0.6094
5704.00000 0.6115
5705.00000 0.6178
5706.00000 0.6201
5708.00000 0.6242
5709.00000 0.6297
5710.00000 0.6358
5712.00000 0.6407
5713.00000 0.6476
5714.00000 0.6494
5716.00000 0.6508
5717.00000 0.6558
5718.00000 0.6605
5720.00000 0.6642
5721.00000 0.6707
5722.00000 0.675
5724.00000 0.6791
5725.00000 0.6785
5726.00000 0.6777
5728.00000 0.6763
5729.00000 0.6775
5730.00000 0.6761
5732.00000 0.6796
5733.00000 0.6813
5734.00000 0.6876
5736.00000 0.6895
5737.00000 0.6918
5738.00000 0.6942
5740.00000 0.7001
5741.00000 0.7017
5742.00000 0.7021
5744.00000 0.7065
5745.00000 0.7119
5746.00000 0.7185
5748.00000 0.7239
5749.00000 0.7328
5750.00000 0.7371
5988.70020 0.86641
5992.10010 0.87536
5995.60010 0.87712
5999.00000 0.87673
6002.50000 0.87664
6005.89990 0.87772
6009.29980 0.87711
6012.79980 0.87661
6016.20020 0.87706
6019.70020 0.8773
6023.10010 0.87635
6026.60010 0.87635
6030.00000 0.87562
6033.39990 0.87465
6036.89990 0.87411
6040.29980 0.87312
6043.70020 0.87278
6047.20020 0.87246
6050.60010 0.87213
6054.10010 0.87082
6057.50000 0.87073
6060.89990 0.86984
6064.39990 0.8693
6067.79980 0.86888
6071.20020 0.86873
6074.70020 0.86822
6078.10010 0.86791
6081.50000 0.86783
6085.00000 0.86701
6088.39990 0.86674
6091.79980 0.86623
6095.29980 0.86545
6098.70020 0.86473
6102.10010 0.86416
6105.60010 0.86389
6109.00000 0.86291
6112.39990 0.86266
6115.79980 0.86141
6119.29980 0.86097
6122.70020 0.85988
6126.10010 0.85912
6129.60010 0.85822
6133.00000 0.85744
6136.39990 0.85594
6139.79980 0.85469
6143.29980 0.85362
6146.70020 0.85255
6150.10010 0.85155
6153.50000 0.85076
6157.00000 0.85023
6160.39990 0.84996
6163.79980 0.84962
6167.20020 0.84893
6170.60010 0.8486
6174.10010 0.84803
6177.50000 0.8476
6180.89990 0.84712
6184.29980 0.84659
6187.79980 0.84535
6191.20020 0.84443
6194.60010 0.84315
6198.00000 0.84179
6201.39990 0.84089
6204.79980 0.83998
6208.29980 0.83882
6211.70020 0.838
6215.10010 0.83692
6218.50000 0.83656
6221.89990 0.83615
6225.29980 0.83501
6228.79980 0.8343
6232.20020 0.83356
6235.60010 0.83227
6239.00000 0.83144
6242.39990 0.83081
6245.79980 0.82988
6249.20020 0.82861
6252.60010 0.82781
6256.10010 0.8266
6259.50000 0.82553
6262.89990 0.82373
6266.29980 0.82281
6269.70020 0.82143
6273.10010 0.81991
6276.50000 0.81867
6279.89990 0.81851
6283.29980 0.81788
6286.70020 0.81717
6290.10010 0.81646
6293.50000 0.81597
6297.00000 0.81422
6300.39990 0.81323
6303.79980 0.81197
6307.20020 0.81071
6310.60010 0.80949
6314.00000 0.80874
6317.39990 0.807
6320.79980 0.80648
6324.20020 0.80589
6327.60010 0.80483
6331.00000 0.8038
6334.39990 0.80284
6337.79980 0.80083
6341.20020 0.79992
6344.60010 0.79819
6348.00000 0.79702
6351.39990 0.79659
6354.79980 0.7956
6358.20020 0.79419
6361.60010 0.79402
6365.00000 0.79318
6368.39990 0.79164
6371.79980 0.79069
6375.20020 0.78967
6378.60010 0.78819
6382.00000 0.78734
6385.39990 0.78662
6388.70020 0.78588
6392.10010 0.7849
6395.50000 0.78423
6398.89990 0.78283
6402.29980 0.78131
6405.70020 0.78041
6409.10010 0.77919
6412.50000 0.77773
6415.89990 0.77684
6419.29980 0.776
6422.70020 0.77459
6426.10010 0.77375
6429.39990 0.77273
6432.79980 0.77154
6436.20020 0.77048
6439.60010 0.76921
6443.00000 0.76796
6446.39990 0.76697
6449.79980 0.76653
6453.20020 0.765
6456.50000 0.76416
6459.89990 0.76312
6463.29980 0.76193
6466.70020 0.75997
6470.10010 0.75892
6473.50000 0.75751
6476.79980 0.75644
6480.20020 0.75557
6483.60010 0.7545
6487.00000 0.75415
6490.39990 0.75327
6493.79980 0.752
6497.10010 0.75074
6500.50000 0.74949
6503.89990 0.74767
6507.29980 0.74643
6510.60010 0.74517
6514.00000 0.7437
6517.39990 0.74291
6520.79980 0.74181
6524.20020 0.74084
6527.50000 0.73974
6530.89990 0.73875
6534.29980 0.73738
6537.70020 0.73622
6541.00000 0.73473
6544.39990 0.73353
6547.79980 0.73248
6551.20020 0.73157
6554.50000 0.73076
6557.89990 0.72974
6561.29980 0.72895
6564.60010 0.72787
6568.00000 0.72661
6571.39990 0.72468
6574.79980 0.72349
6578.10010 0.72206
6581.50000 0.7208
6584.89990 0.71876
6588.20020 0.71787
6591.60010 0.71639
6595.00000 0.71481
6598.29980 0.71362
6601.70020 0.7137
6605.10010 0.71268
6608.39990 0.71172
6611.79980 0.71086
6615.20020 0.70918
6618.50000 0.7074
6621.89990 0.70613
6625.29980 0.70487
6628.60010 0.70348
6632.00000 0.70234
6635.29980 0.70079
6638.70020 0.69975
6642.10010 0.69845
6645.39990 0.69732
6648.79980 0.69616
6652.10010 0.69516
6655.50000 0.69306
6658.89990 0.69175
6662.20020 0.69033
6665.60010 0.68906
6668.89990 0.68802
6672.29980 0.6874
6675.70020 0.68593
6679.00000 0.68478
6682.39990 0.68367
6685.70020 0.68155
6689.10010 0.68019
6692.39990 0.67916
6695.79980 0.67759
6699.10010 0.6759
6702.50000 0.67467
6705.89990 0.67298
6709.20020 0.67157
6712.60010 0.67055
6715.89990 0.66907
6719.29980 0.66818
6722.60010 0.66713
6726.00000 0.66569
6729.29980 0.66436
6732.70020 0.66283
6736.00000 0.66108
6739.39990 0.65966
6742.70020 0.65815
6746.10010 0.65621
6749.39990 0.65474
6752.79980 0.65355
6756.10010 0.65224
6759.39990 0.65062
6762.79980 0.64943
6766.10010 0.64837
6769.50000 0.6467
6772.79980 0.64481
6776.20020 0.64351
6779.50000 0.64174
6782.89990 0.64005
6786.20020 0.63865
6789.50000 0.63688
6792.89990 0.63562
6796.20020 0.63405
6799.60010 0.63243
6802.89990 0.63084
6806.20020 0.62974
6809.60010 0.6276
6812.89990 0.62604
6816.29980 0.6241
6819.60010 0.62183
6822.89990 0.61994
6826.29980 0.61859
6829.60010 0.61738
6833.00000 0.61628
6836.29980 0.61528
6839.60010 0.61396
6843.00000 0.61209
6846.29980 0.60987
6849.60010 0.60823
6853.00000 0.60666
6856.29980 0.60475
6859.60010 0.60338
6863.00000 0.6022
6866.29980 0.60054
6869.60010 0.59858
6873.00000 0.59704
6876.29980 0.59517
6879.60010 0.59326
6883.00000 0.59185
6886.29980 0.59068
6889.60010 0.58901
6892.89990 0.5877
6896.29980 0.58627
6899.60010 0.58423
6902.89990 0.58235
6906.20020 0.58071
6909.60010 0.57917
6912.89990 0.57721
6916.20020 0.57623
6919.60010 0.57442
6922.89990 0.57317
6926.20020 0.57146
6929.50000 0.57023
6932.89990 0.56843
6936.20020 0.56717
6939.50000 0.56551
6942.79980 0.5641
6946.10010 0.56234
6949.50000 0.56055
6952.79980 0.5588
6956.10010 0.55706
6959.39990 0.55504
6962.70020 0.55372
6966.10010 0.55216
6969.39990 0.55084
6972.70020 0.54928
6976.00000 0.54761
6979.29980 0.54576
6982.70020 0.54406
6986.00000 0.54234
6989.29980 0.54048
6992.60010 0.53922
6995.89990 0.5375
6999.20020 0.53553
7002.50000 0.53394
7005.89990 0.53271
7009.20020 0.53107
7012.50000 0.52974
7015.79980 0.52883
7019.10010 0.52728
7022.39990 0.52542
7025.70020 0.52402
7029.00000 0.52246
7032.39990 0.52059
7035.70020 0.51865
7039.00000 0.51705
7042.29980 0.51515
7045.60010 0.51355
7048.89990 0.51191
7052.20020 0.5106
7055.50000 0.50915
7058.79980 0.50785
7062.10010 0.50634
7065.39990 0.50458
7068.70020 0.50296
7072.00000 0.50115
7075.39990 0.49942
7078.70020 0.49773
7082.00000 0.49628
7085.29980 0.49466
7088.60010 0.49324
7091.89990 0.49186
7095.20020 0.49046
7098.50000 0.48943
7101.79980 0.48816
7105.10010 0.48666
7108.39990 0.48506
7111.70020 0.48324
7115.00000 0.48129
7118.29980 0.47929
7121.60010 0.47772
7124.89990 0.47616
7128.20020 0.47455
7131.50000 0.47279
7134.79980 0.47152
7138.10010 0.46981
7141.39990 0.46817
7144.70020 0.46663
7148.00000 0.46514
7151.20020 0.46358
7154.50000 0.4618
7157.79980 0.46034
7161.10010 0.45873
7164.39990 0.45695
7167.70020 0.45538
7171.00000 0.45404
7174.29980 0.45224
7177.60010 0.45064
7180.89990 0.44908
7184.20020 0.44702
7187.50000 0.44507
7190.79980 0.44312
7194.00000 0.44168
7197.29980 0.44006
7200.60010 0.4384
7203.89990 0.43682
7207.20020 0.43526
7210.50000 0.43365
7213.79980 0.43214
7217.10010 0.431
7220.29980 0.42954
7223.60010 0.42804
7226.89990 0.42641
7230.20020 0.4248
7233.50000 0.42292
7236.79980 0.42147
7240.00000 0.42019
7243.29980 0.4183
7246.60010 0.41668
7249.89990 0.41501
7253.20020 0.41355
7256.50000 0.4117
7259.70020 0.41049
7263.00000 0.40914
7266.29980 0.40782
7269.60010 0.40648
7272.89990 0.4049
7276.10010 0.40324
7279.39990 0.40187
7282.70020 0.40044
7286.00000 0.39891
7289.20020 0.39807
7292.50000 0.39681
7295.79980 0.39507
7299.10010 0.39377
7302.29980 0.39243
7305.60010 0.39074
7308.89990 0.38936
7312.20020 0.3878
7315.39990 0.38655
7318.70020 0.3846
7322.00000 0.38318
7325.29980 0.3819
7328.50000 0.38072
7331.79980 0.37894
7335.10010 0.37815
7338.29980 0.37653
7341.60010 0.37474
7344.89990 0.37313
7348.10010 0.37154
7351.39990 0.36959
7354.70020 0.36804
7357.89990 0.36642
7361.20020 0.36479
7364.50000 0.36291
7367.70020 0.36163
7371.00000 0.36036
7374.29980 0.35931
7377.50000 0.35818
7380.79980 0.35714
7384.10010 0.35591
7387.29980 0.3543
7390.60010 0.35265
7393.89990 0.35113
7397.10010 0.3498
7400.39990 0.34768
7403.60010 0.34618
7406.89990 0.34468
7410.20020 0.34314
7413.39990 0.34119
7416.70020 0.33967
7419.89990 0.33809
7423.20020 0.33627
7426.50000 0.33469
7429.70020 0.33363
7433.00000 0.33253
7436.20020 0.33121
7439.50000 0.32973
7442.79980 0.32815
7446.00000 0.32624
7449.29980 0.32447
7452.50000 0.32307
7455.79980 0.32153
7459.00000 0.31978
7462.29980 0.31863
7465.50000 0.31719
7468.79980 0.31558
7472.00000 0.31427
7475.29980 0.31315
7478.50000 0.31183
7481.79980 0.31024
7485.00000 0.30841
7488.29980 0.30707
7491.50000 0.30572
7494.79980 0.30409
7498.00000 0.30295
7501.29980 0.30195
7504.50000 0.30048
7507.79980 0.29908
7511.00000 0.29793
7514.29980 0.29618
7517.50000 0.29436
7520.79980 0.29277
7524.00000 0.29136
7527.29980 0.28973
7530.50000 0.28857
7533.70020 0.28721
7537.00000 0.28602
7540.20020 0.28438
7543.50000 0.28286
7546.70020 0.28154
7550.00000 0.28035
7553.20020 0.27854
7556.39990 0.2772
7559.70020 0.27601
7562.89990 0.27449
7566.20020 0.2731
7569.39990 0.27211
7572.60010 0.27065
7575.89990 0.26917
7579.10010 0.2678
7582.39990 0.26625
7585.60010 0.2648
7588.79980 0.26379
7592.10010 0.26248
7595.29980 0.26108
7598.50000 0.25991
7601.79980 0.25827
7605.00000 0.25687
7608.20020 0.25549
7611.50000 0.25444
7614.70020 0.25281
7617.89990 0.25184
7621.20020 0.25026
7624.39990 0.24907
7627.60010 0.24762
7630.89990 0.24675
7634.10010 0.24524
7637.29980 0.24407
7640.60010 0.24275
7643.79980 0.24162
7647.00000 0.24048
7650.20020 0.23943
7653.50000 0.23807
7656.70020 0.23689
7659.89990 0.23542
7663.20020 0.23407
7666.39990 0.23273
7669.60010 0.23145
7672.79980 0.23015
7676.10010 0.22899
7679.29980 0.2279
7682.50000 0.22709
7685.70020 0.22619
7689.00000 0.22513
7692.20020 0.2242
7695.39990 0.22263
7698.60010 0.22115
7701.79980 0.22007
7705.10010 0.2187
7708.29980 0.21693
7711.50000 0.21604
7714.70020 0.2147
7717.89990 0.21298
7721.20020 0.21194
7724.39990 0.21093
7727.60010 0.20962
7730.79980 0.20867
7734.00000 0.20751
7737.20020 0.2062
7740.50000 0.2052
7743.70020 0.2039
7746.89990 0.20271
7750.10010 0.20186
7753.29980 0.20089
7756.50000 0.19973
7759.70020 0.19892
7763.00000 0.19783
7766.20020 0.19666
7769.39990 0.19546
7772.60010 0.19455
7775.79980 0.19345
7779.00000 0.19252
7782.20020 0.19157
7785.39990 0.19066
7788.70020 0.18966
7791.89990 0.18862
7795.10010 0.18771
7798.29980 0.18679
7801.50000 0.18567
7804.70020 0.18429
7807.89990 0.18328
7811.10010 0.18217
7814.29980 0.18106
7817.50000 0.18006
7820.70020 0.17963
7823.89990 0.17869
7827.10010 0.17737
7830.29980 0.17626
7833.50000 0.17503
7836.70020 0.17345
7839.89990 0.17225
7843.10010 0.17134
7846.39990 0.17032
7849.60010 0.16962
7852.79980 0.169
7856.00000 0.16816
7859.20020 0.1673
7862.39990 0.16618
7865.60010 0.16497
7868.79980 0.16373
7871.89990 0.16281
7875.10010 0.16164
7878.29980 0.16092
7881.50000 0.16014
7884.70020 0.15948
7887.89990 0.15855
7891.10010 0.15758
7894.29980 0.15685
7897.50000 0.15601
7900.70020 0.15521
7903.89990 0.15405
7907.10010 0.15337
7910.29980 0.15216
7913.50000 0.15118
7916.70020 0.15008
7919.89990 0.14939
7923.10010 0.14862
7926.29980 0.14812
7929.39990 0.14735
7932.60010 0.14617
7935.79980 0.14522
7939.00000 0.1442
7942.20020 0.14296
7945.39990 0.14197
7948.60010 0.14131
7951.79980 0.14063
7955.00000 0.14005
7958.10010 0.13943
7961.29980 0.13866
7964.50000 0.13778
7967.70020 0.1369
7970.89990 0.13596
7974.10010 0.13504
7977.29980 0.13428
7980.39990 0.13362
7983.60010 0.13297
7986.79980 0.13219
7990.00000 0.13129
7993.20020 0.13056
7996.29980 0.1298
7999.50000 0.12884
8002.70020 0.1279
8005.89990 0.12725
8009.10010 0.12653
8012.20020 0.12567
8015.39990 0.12484
8018.60010 0.12421
8021.79980 0.1237
8025.00000 0.12273
8028.10010 0.12227
8031.29980 0.12164
8034.50000 0.12097
8037.70020 0.11989
8040.79980 0.11905
8044.00000 0.11834
8047.20020 0.11797
8050.39990 0.11727
8053.50000 0.11683
8056.70020 0.11616
8059.89990 0.11526
8063.10010 0.11448
8066.20020 0.11377
8069.39990 0.113
8072.60010 0.11255
8075.70020 0.11179
8078.89990 0.11077
8082.10010 0.11014
8085.20020 0.10971
8088.39990 0.10877
8091.60010 0.10813
8094.79980 0.10748
8097.89990 0.10691
8101.10010 0.10613
8104.29980 0.10586
8107.39990 0.10538
8110.60010 0.1047
8113.70020 0.10387
8116.89990 0.10295
8120.10010 0.102
8123.20020 0.10118
8126.39990 0.1007
8129.60010 0.10035
8132.70020 0.09974
8135.89990 0.09899
8139.10010 0.09806
8142.20020 0.09727
8145.39990 0.09636
8148.50000 0.09576
8151.70020 0.0953
8154.89990 0.09501
8158.00000 0.09463
8161.20020 0.09422
8164.29980 0.094
8167.50000 0.09368
8170.60010 0.09323
8173.79980 0.09242
8177.00000 0.09169
8180.10010 0.0907
8183.29980 0.09
8186.39990 0.08926
8189.60010 0.08877
8192.70020 0.08823
8195.90039 0.0878
8199.00000 0.08716
8202.20020 0.08677
8205.40039 0.08657
8208.50000 0.08586
8211.70020 0.08528
8214.79980 0.08467
8218.00000 0.08403
8221.09961 0.08314
8224.29980 0.08264
8227.40039 0.08211
8230.59961 0.08178
8233.70020 0.08139
8236.90039 0.08115
8240.00000 0.08088
8243.20020 0.08063
8246.29980 0.08024
8249.40039 0.07944
8252.59961 0.07873
8255.70020 0.07812
8258.90039 0.07763
8262.00000 0.07712
8265.20020 0.07691
8268.29980 0.07644
8271.50000 0.07604
8274.59961 0.07526
8277.70020 0.07455
8280.90039 0.07391
8284.00000 0.07337
8287.20020 0.07283
8290.29980 0.07246
8293.50000 0.07189
8296.59961 0.07126
8299.70020 0.07084
8302.90039 0.07011
8306.00000 0.06944
8309.09961 0.06915
8312.29980 0.06901
8315.40039 0.06872
8318.59961 0.06834
8321.70020 0.06832
8324.79980 0.068
8328.00000 0.06758
8331.09961 0.0671
8334.20020 0.06686
8337.40039 0.06613
8340.50000 0.06553
8343.59961 0.06501
8346.79980 0.06448
8349.90039 0.06373
8353.00000 0.0634
8356.20020 0.06312
8359.29980 0.06273
8362.40039 0.06226
8365.59961 0.06235
8368.70020 0.06183
8371.79980 0.06142
8374.90039 0.06074
8378.09961 0.06029
8381.20020 0.05944
8384.29980 0.05896
8387.50000 0.05827
8390.59961 0.05789
8393.70020 0.05746
8396.79980 0.0572
8400.00000 0.05706
8403.09961 0.05693
8406.20020 0.05694
8409.29980 0.05692
8412.50000 0.05682
8415.59961 0.0566
8418.70020 0.05604
8421.79980 0.05571
8425.00000 0.05516
8428.09961 0.0546
8431.20020 0.05435
8434.29980 0.05393
8437.40039 0.05345
8440.59961 0.05273
8443.70020 0.05217
8446.79980 0.05137
8449.90039 0.05114
8453.00000 0.05074
8456.20020 0.05071
8459.29980 0.05049
8462.40039 0.05044
8465.50000 0.05018
8468.59961 0.04975
8471.70020 0.04945
8474.90039 0.04919
8478.00000 0.04875
8481.09961 0.04842
8484.20020 0.04812
8487.29980 0.04777
8490.40039 0.0474
8493.50000 0.04684
8496.59961 0.0462
8499.79980 0.0456
8502.90039 0.04517
8506.00000 0.04482
8509.09961 0.04456
8512.20020 0.04456
8515.29980 0.04469
8518.40039 0.04458
8521.50000 0.04454
8524.59961 0.04458
8527.70020 0.04457
8530.90039 0.04433
8534.00000 0.04417
8537.09961 0.04397
8540.20020 0.04362
8543.29980 0.04311
8546.40039 0.04291
8549.50000 0.04225
8552.59961 0.04198
8555.70020 0.04154
8558.79980 0.04093
8561.90039 0.04011
8565.00000 0.03987
8568.09961 0.03927
8571.20020 0.03895
8574.29980 0.03876
8577.40039 0.03885
8580.50000 0.03873
8583.59961 0.03853
8586.70020 0.03846
8589.79980 0.03852
8592.90039 0.03834
8596.00000 0.03813
8599.09961 0.03817
8602.20020 0.03774
8605.29980 0.03743
8608.40039 0.03717
8611.50000 0.03705
8614.59961 0.03645
8617.70020 0.0365
8620.79980 0.03609
8623.90039 0.03513
8627.00000 0.03455
8630.09961 0.03399
8633.20020 0.0331
8636.20020 0.03283
8639.29980 0.0331
8642.40039 0.033
8645.50000 0.03305
8648.59961 0.03313
8651.70020 0.03309
8654.79980 0.03284
8657.90039 0.03284
8661.00000 0.03282
8664.09961 0.03291
8667.09961 0.03294
8670.20020 0.03324
8673.29980 0.0331
8676.40039 0.03317
8679.50000 0.03302
8682.59961 0.03293
8685.70020 0.03236
8688.79980 0.03197
8691.79980 0.03129
8694.90039 0.03105
8698.00000 0.03061
8701.09961 0.03055
8704.20020 0.03042
8707.29980 0.03033
8710.29980 0.0299
8713.40039 0.02973
8716.50000 0.02912
8719.59961 0.02857
8722.70020 0.02813
8725.70020 0.02791
8728.79980 0.02731
8731.90039 0.02747
8735.00000 0.02752
8738.09961 0.02764
8741.09961 0.02772
8744.20020 0.02781
8747.29980 0.02786
8750.40039 0.02797
8753.40039 0.02796
8756.50000 0.02793
8759.59961 0.02812
8762.70020 0.02669
8765.70020 0.0265
8768.79980 0.0264
8771.90039 0.02604
8775.00000 0.02576
8778.00000 0.02672
8781.09961 0.02618
8784.20020 0.02599
8787.29980 0.02596
8790.29980 0.0255
8793.40039 0.02551
8796.50000 0.02531
8799.50000 0.02472
8802.59961 0.02436
8805.70020 0.0242
8808.70020 0.02355
8811.79980 0.02295
8814.90039 0.0226
8817.90039 0.02251
8821.00000 0.0223
8824.09961 0.02212
8827.09961 0.02191
8830.20020 0.02179
8833.29980 0.02098
8836.29980 0.02071
8839.40039 0.02041
8842.50000 0.02058
8845.50000 0.02069
8848.59961 0.02088
8851.59961 0.02065
8854.70020 0.02063
8857.79980 0.02062
8860.79980 0.02034
8863.90039 0.02032
8867.00000 0.02033
8870.00000 0.02033
8873.09961 0.02023
8876.09961 0.02019
8879.20020 0.02015
8882.20020 0.02006
8885.29980 0.02023
8888.40039 0.02028
8891.40039 0.02043
8894.50000 0.02042
8897.50000 0.02053
8900.59961 0.02038
8903.59961 0.02051
8906.70020 0.02045
8909.70020 0.02046
8912.79980 0.02052
8915.90039 0.0206
8918.90039 0.02058
8922.00000 0.02071
8925.00000 0.02078
8928.09961 0.02081
8931.09961 0.02088
8934.20020 0.02091
8937.20020 0.02092
8940.29980 0.02097
8943.29980 0.02071
8946.40039 0.02065
8949.40039 0.02047
8952.50000 0.02049
8955.50000 0.02043
8958.50000 0.02076
8961.59961 0.02084
8964.59961 0.021
8967.70020 0.02081
8970.70020 0.02039
8973.79980 0.02032
8976.79980 0.01981
8979.90039 0.01958
8982.90039 0.01949
8986.00000 0.01977
8989.00000 0.01911
8992.00000 0.01952
8995.09961 0.01921
8998.09961 0.01888
9001.20020 0.0181
9004.20020 0.01831
9007.20020 0.01759
9010.29980 0.01692
9013.29980 0.0173
9016.40039 0.01753
9019.40039 0.01719
9022.40039 0.01689
9025.50000 0.01671
9028.50000 0.01615
9031.50000 0.01527
9034.59961 0.01481
9037.59961 0.01513
9040.70020 0.01527
9043.70020 0.0149
9046.70020 0.0152
9049.79980 0.01492
9052.79980 0.01396
9055.79980 0.01426
9058.90039 0.01381
9061.90039 0.01353
9064.90039 0.01412
9067.90039 0.01432
9071.00000 0.01352
9074.00000 0.01326
9077.00000 0.01294
9080.09961 0.01238
9083.09961 0.01213
9086.09961 0.01248
9089.20020 0.01261
9092.20020 0.01296
9095.20020 0.01282
9098.20020 0.01271
9101.29980 0.01227
9104.29980 0.01232
9107.29980 0.01211
9110.29980 0.01221
9113.40039 0.01262
9116.40039 0.01268
9119.40039 0.01248
9122.40039 0.0124
9125.50000 0.01231
9128.50000 0.01185
9131.50000 0.01186
9134.50000 0.01203
9137.50000 0.01206
9140.59961 0.01175
9143.59961 0.01203
9146.59961 0.01219
9149.59961 0.01198
9152.59961 0.01192
9155.70020 0.0121
9158.70020 0.0119
9161.70020 0.01179
9164.70020 0.01191
9167.70020 0.01198
9170.79980 0.01204
9173.79980 0.0122
9176.79980 0.01225
9179.79980 0.01229
9182.79980 0.0124
9185.79980 0.01237
9188.79980 0.0124
9191.90039 0.01241
9194.90039 0.01246
9197.90039 0.0125
9200.90039 0.0126
9203.90039 0.01263
9206.90039 0.01272
9209.90039 0.01265
9212.90039 0.01245
9215.90039 0.01223
9219.00000 0.01227
9222.00000 0.01229
9225.00000 0.01245
9228.00000 0.01244
9231.00000 0.01263
9234.00000 0.01241
9237.00000 0.0124
9240.00000 0.01249
9243.00000 0.01292
9246.00000 0.01314
9249.00000 0.01325
9252.00000 0.01337
9255.00000 0.0134
9258.00000 0.01326
9261.00000 0.01333
9264.00000 0.01307
9267.09961 0.01307
9270.09961 0.01313
9273.09961 0.01319
9276.09961 0.01319
9279.09961 0.01344
9282.09961 0.01301
9285.09961 0.01285
9288.09961 0.01281
9291.09961 0.0128
9294.09961 0.01313
9297.09961 0.01255
9300.00000 0.01245
9303.00000 0.01242
9306.00000 0.01205
9309.00000 0.01186
9312.00000 0.01297
9315.00000 0.01308
9318.00000 0.01346
9321.00000 0.01395
9324.00000 0.01399
9327.00000 0.01391
9330.00000 0.01459
9333.00000 0.01424
9336.00000 0.01325
9339.00000 0.01283
9342.00000 0.0127
9345.00000 0.01234
9348.00000 0.01207
9350.90039 0.01301
9353.90039 0.01356
9356.90039 0.01382
9359.90039 0.014
9362.90039 0.01413
9365.90039 0.01355
9368.90039 0.01345
9371.90039 0.01203
9374.90039 0.01106
9377.79980 0.01117
9380.79980 0.01165
9383.79980 0.01182
9386.79980 0.01381
9389.79980 0.01243
9392.79980 0.01169
9395.70020 0.00938
9398.70020 0.00766
9401.70020 0.00572
9404.70020 0.00668
9407.70020 0.00566
9410.70020 0.00742
9413.59961 0.00831
9416.59961 0.00892
9419.59961 0.01023
9422.59961 0.01166
9425.59961 0.01171
9428.50000 0.01103
9431.50000 0.00933
9434.50000 0.00856
9437.50000 0.00804
9440.50000 0.00806
9443.40039 0.00795
9446.40039 0.00923
9449.40039 0.00785
9452.40039 0.0062
9455.29980 0.00406
9458.29980 0.00449
9461.29980 0.00479
9464.29980 0.00402
9467.20020 0.0059
9470.20020 0.00781
9473.20020 0.00842
9476.09961 0.00759
9479.09961 0.00852
9482.09961 0.0077
9485.09961 0.00647
9488.00000 0.00643
9491.00000 0.00733
9494.00000 0.00692
9496.90039 0.00709
9499.90039 0.00734
9502.90039 0.00585
9505.79980 0.00452
9508.79980 0.00409
9511.79980 0.00377
9514.70020 0.00306
9517.70020 0.00366
9520.70020 0.00387
9523.59961 0.00474
9526.59961 0.00464
9529.59961 0.00576
9532.50000 0.00591
9535.50000 0.00669
9538.50000 0.00655
9541.40039 0.00676
9544.40039 0.00664
9547.29980 0.00633
9550.29980 0.00621
9553.29980 0.00591
9556.20020 0.00504
9559.20020 0.0055
9562.09961 0.0054
9565.09961 0.0054
9568.09961 0.00531
9571.00000 0.00675
9574.00000 0.00643
9576.90039 0.00642
9579.90039 0.0061
9582.90039 0.00679
9585.79980 0.00578
9588.79980 0.00555
9591.70020 0.00572
9594.70020 0.00662
9597.59961 0.00608
9600.59961 0.00675
9603.50000 0.00578
9606.50000 0.00666
9609.40039 0.00549
9612.40039 0.0055
9615.29980 0.00522
9618.29980 0.00631
9621.20020 0.00582
9624.20020 0.00563
9627.09961 0.00536
9630.09961 0.00558
9633.00000 0.0053
9636.00000 0.00489
9638.90039 0.00505
9641.90039 0.00486
9644.79980 0.00398
9647.79980 0.00358
9650.70020 0.00353
9653.70020 0.00334
9656.59961 0.00351
9659.59961 0.00436
9662.50000 0.00474
9665.50000 0.00497
9668.40039 0.00514
9671.29980 0.00557
9674.29980 0.00533
9677.20020 0.00494
9680.20020 0.00389
9683.09961 0.00391
9686.09961 0.00347
9689.00000 0.00371
9691.90039 0.00347
9694.90039 0.00391
9697.79980 0.00368
9700.79980 0.00351
9703.70020 0.00266
9706.59961 0.00331
9709.59961 0.0039
9712.50000 0.00474
9715.40039 0.00512
9718.40039 0.00535
9721.29980 0.00449
9724.29980 0.00411
9727.20020 0.00388
9730.09961 0.0033
9733.09961 0.0037
9736.00000 0.00395
9738.90039 0.00456
9741.90039 0.00336
9744.79980 0.00376
9747.70020 0.00381
9750.70020 0.00401
9753.59961 0.00383
9756.50000 0.00423
9759.40039 0.00426
9762.40039 0.00403
9765.29980 0.00365
9768.20020 0.00406
9771.20020 0.00475
9774.09961 0.00472
9777.00000 0.00497
9779.90039 0.00495
9782.90039 0.00326
9785.79980 0.0028
9788.70020 0.00198
9791.59961 0.00108
9794.59961 0.00155
9797.50000 0.00218
9800.40039 0.00178
9803.29980 0.00198
9806.29980 0.00291
9809.20020 0.0031
9812.09961 0.00315
9815.00000 0.00313
9818.00000 0.00294
9820.90039 0.00246
9823.79980 0.00228
9826.70020 0.00248
9829.59961 0.00298
9832.59961 0.00365
9835.50000 0.00324
9838.40039 0.00392
9841.29980 0.00281
9844.20020 0.00209
9847.20020 0.00236
9850.09961 0.0021
9853.00000 0.00097
9855.90039 0.00141
9858.79980 0.00216
9861.70020 0.00166
9864.59961 0.00194
9867.59961 0.0024
9870.50000 0.00268
9873.40039 0.00217
9876.29980 0.00198
9879.20020 0.00171
9882.09961 0.00126
9885.00000 0.00098
9887.90039 0.00128
9890.90039 0.001
9893.79980 0.00129
9896.70020 0.00151
9899.59961 0.00284
9902.50000 0.00333
9905.40039 0.00443
9908.29980 0.00442
9911.20020 0.00475
9914.09961 0.00422
9917.00000 0.00349
9919.90039 0.00293
9922.79980 0.00353
9925.79980 0.00324
9928.70020 0.00275
9931.59961 0.00245
9934.50000 0.0025
9937.40039 0.0022
9940.29980 0.00281
9943.20020 0.00278
9946.09961 0.00397
9949.00000 0.00366
9951.90039 0.00343
9954.79980 0.00255
9957.70020 0.00261
9960.59961 0.00114
9963.50000 0.00178
9966.40039 0.00175
9969.29980 0.00151
9972.20020 0.00088
9975.09961 0.00183
9978.00000 0.00119
9980.90039 0.00155
9983.79980 0.00212
9986.70020 0.0028
9989.59961 0.00215
9992.50000 0.00159
9995.40039 0.00124
9998.29980 0.00035
10998.12988 0.0
