# %ECSV 0.9
# ---
# datatype:
# - {name: wavelength, unit: Angstrom, datatype: float32}
# - {name: response, datatype: float32}
# meta: !!omap
# - {band_name: WBP5694}
# - {group_name: IMACS}
wavelength response
4909.50000 0.0
5455.00000 0.00515
5457.00000 0.00566
5458.00000 0.00549
5459.00000 0.00511
5461.00000 0.00521
5462.00000 0.00558
5464.00000 0.00588
5465.00000 0.00618
5466.00000 0.00621
5468.00000 0.00603
5469.00000 0.00599
5470.00000 0.00608
5472.00000 0.00603
5473.00000 0.00604
5475.00000 0.0065
5476.00000 0.00682
5477.00000 0.00636
5479.00000 0.00618
5480.00000 0.00666
5481.00000 0.00663
5483.00000 0.00691
5484.00000 0.00712
5485.00000 0.00711
5487.00000 0.00694
5488.00000 0.00746
5490.00000 0.00734
5491.00000 0.00732
5492.00000 0.00729
5494.00000 0.00751
5495.00000 0.00723
5496.00000 0.00745
5498.00000 0.00717
5499.00000 0.00737
5501.00000 0.00757
5502.00000 0.00778
5503.00000 0.00783
5505.00000 0.00806
5506.00000 0.0082
5507.00000 0.00843
5509.00000 0.00831
5510.00000 0.00854
5512.00000 0.00841
5513.00000 0.00889
5514.00000 0.00919
5516.00000 0.00908
5517.00000 0.00914
5518.00000 0.00912
5520.00000 0.00926
5521.00000 0.00898
5522.00000 0.00922
5524.00000 0.00921
5525.00000 0.00874
5527.00000 0.00883
5528.00000 0.00854
5529.00000 0.00855
5531.00000 0.00882
5532.00000 0.00882
5533.00000 0.00881
5535.00000 0.0087
5536.00000 0.00926
5537.00000 0.00884
5539.00000 0.00919
5540.00000 0.00966
5542.00000 0.00994
5543.00000 0.01011
5544.00000 0.00944
5546.00000 0.0096
5547.00000 0.00932
5548.00000 0.00926
5550.00000 0.00889
5551.00000 0.00864
5552.00000 0.00954
5554.00000 0.00984
5555.00000 0.01043
5557.00000 0.01115
5558.00000 0.01164
5559.00000 0.0124
5561.00000 0.0126
5562.00000 0.01348
5563.00000 0.01416
5565.00000 0.0153
5566.00000 0.01531
5567.00000 0.01556
5569.00000 0.01615
5570.00000 0.01668
5572.00000 0.01766
5573.00000 0.01843
5574.00000 0.01882
5576.00000 0.02006
5577.00000 0.02146
5578.00000 0.02337
5580.00000 0.02504
5581.00000 0.02699
5582.00000 0.02843
5584.00000 0.03017
5585.00000 0.03146
5586.00000 0.03224
5588.00000 0.034
5589.00000 0.03615
5591.00000 0.03754
5592.00000 0.03846
5593.00000 0.03881
5595.00000 0.03944
5596.00000 0.04047
5597.00000 0.04128
5599.00000 0.0418
5600.00000 0.04305
5601.00000 0.04425
5603.00000 0.04543
5604.00000 0.04594
5605.00000 0.04624
5607.00000 0.04731
5608.00000 0.04835
5609.00000 0.04907
5611.00000 0.05148
5612.00000 0.05385
5614.00000 0.05636
5615.00000 0.05896
5616.00000 0.0615
5618.00000 0.06345
5619.00000 0.06697
5620.00000 0.07058
5622.00000 0.07341
5623.00000 0.0763
5624.00000 0.07965
5626.00000 0.08116
5627.00000 0.08311
5628.00000 0.08497
5630.00000 0.08617
5631.00000 0.08787
5632.00000 0.09044
5634.00000 0.09246
5635.00000 0.09567
5636.00000 0.09926
5638.00000 0.1028
5639.00000 0.10654
5641.00000 0.11144
5642.00000 0.11611
5643.00000 0.12045
5645.00000 0.12425
5646.00000 0.12865
5647.00000 0.13298
5649.00000 0.13783
5650.00000 0.14162
5651.00000 0.14656
5653.00000 0.1521
5654.00000 0.15767
5655.00000 0.16224
5657.00000 0.1668
5658.00000 0.17198
5659.00000 0.17834
5661.00000 0.18343
5662.00000 0.18965
5663.00000 0.19614
5665.00000 0.20352
5666.00000 0.20983
5667.00000 0.21605
5669.00000 0.2215
5670.00000 0.22804
5671.00000 0.23546
5673.00000 0.24453
5674.00000 0.25302
5675.00000 0.26322
5677.00000 0.27128
5678.00000 0.27873
5679.00000 0.28521
5681.00000 0.29318
5682.00000 0.30164
5684.00000 0.31161
5685.00000 0.32173
5686.00000 0.33189
5688.00000 0.33973
5689.00000 0.34889
5690.00000 0.35775
5692.00000 0.36829
5693.00000 0.37937
5694.00000 0.39063
5696.00000 0.40061
5697.00000 0.41008
5698.00000 0.41945
5700.00000 0.42765
5701.00000 0.43762
5702.00000 0.44885
5704.00000 0.4597
5705.00000 0.46958
5706.00000 0.47988
5708.00000 0.4897
5709.00000 0.4994
5710.00000 0.51023
5712.00000 0.52249
5713.00000 0.53396
5714.00000 0.54822
5716.00000 0.5607
5717.00000 0.57158
5718.00000 0.58189
5720.00000 0.59211
5721.00000 0.60108
5722.00000 0.61149
5724.00000 0.62283
5725.00000 0.63344
5726.00000 0.64294
5728.00000 0.65356
5729.00000 0.66184
5730.00000 0.6693
5732.00000 0.67706
5733.00000 0.68649
5734.00000 0.69484
5736.00000 0.70447
5737.00000 0.71417
5738.00000 0.72321
5740.00000 0.732
5741.00000 0.74027
5742.00000 0.74649
5744.00000 0.75185
5745.00000 0.75768
5746.00000 0.76572
5748.00000 0.77087
5749.00000 0.77864
5750.00000 0.78241
5752.00000 0.78571
5753.00000 0.79044
5754.00000 0.79571
5756.00000 0.80035
5757.00000 0.80498
5758.00000 0.81112
5760.00000 0.81746
5761.00000 0.82093
5762.00000 0.82538
5764.00000 0.82773
5765.00000 0.83231
5766.00000 0.83606
5768.00000 0.83605
5769.00000 0.83921
5770.00000 0.84152
5772.00000 0.84566
5773.00000 0.84627
5774.00000 0.84743
5775.00000 0.84918
5777.00000 0.85051
5778.00000 0.85423
5779.00000 0.85597
5781.00000 0.85958
5782.00000 0.86628
5783.00000 0.86785
5785.00000 0.86819
5786.00000 0.86537
5787.00000 0.86712
5789.00000 0.8681
5790.00000 0.86944
5791.00000 0.8732
5793.00000 0.87193
5794.00000 0.87435
5795.00000 0.87353
5797.00000 0.87199
5798.00000 0.86933
5799.00000 0.86846
5801.00000 0.86754
5981.79980 0.94388
5985.20020 0.94661
5988.70020 0.94637
5992.10010 0.94626
5995.60010 0.9461
5999.00000 0.94648
6002.50000 0.94678
6005.89990 0.94719
6009.29980 0.94763
6012.79980 0.94802
6016.20020 0.94878
6019.70020 0.94938
6023.10010 0.94993
6026.60010 0.95062
6030.00000 0.95119
6033.39990 0.95214
6036.89990 0.95284
6040.29980 0.95355
6043.70020 0.95438
6047.20020 0.95508
6050.60010 0.95553
6054.10010 0.95599
6057.50000 0.95619
6060.89990 0.95691
6064.39990 0.95737
6067.79980 0.95793
6071.20020 0.95807
6074.70020 0.95823
6078.10010 0.95839
6081.50000 0.95833
6085.00000 0.95803
6088.39990 0.958
6091.79980 0.95765
6095.29980 0.9575
6098.70020 0.95693
6102.10010 0.95663
6105.60010 0.95629
6109.00000 0.95597
6112.39990 0.95536
6115.79980 0.95469
6119.29980 0.95403
6122.70020 0.95364
6126.10010 0.95271
6129.60010 0.9521
6133.00000 0.95153
6136.39990 0.95089
6139.79980 0.95008
6143.29980 0.94954
6146.70020 0.94865
6150.10010 0.94813
6153.50000 0.94779
6157.00000 0.94741
6160.39990 0.94699
6163.79980 0.94714
6167.20020 0.94703
6170.60010 0.94702
6174.10010 0.94718
6177.50000 0.94737
6180.89990 0.94736
6184.29980 0.94795
6187.79980 0.94847
6191.20020 0.94869
6194.60010 0.94885
6198.00000 0.94927
6201.39990 0.94956
6204.79980 0.94984
6208.29980 0.95022
6211.70020 0.95054
6215.10010 0.95132
6218.50000 0.9518
6221.89990 0.95218
6225.29980 0.95256
6228.79980 0.95324
6232.20020 0.95398
6235.60010 0.95442
6239.00000 0.95499
6242.39990 0.95578
6245.79980 0.95604
6249.20020 0.95646
6252.60010 0.95678
6256.10010 0.9573
6259.50000 0.95778
6262.89990 0.95814
6266.29980 0.95794
6269.70020 0.95802
6273.10010 0.95821
6276.50000 0.95818
6279.89990 0.9582
6283.29980 0.95855
6286.70020 0.95852
6290.10010 0.95813
6293.50000 0.95779
6297.00000 0.95727
6300.39990 0.95679
6303.79980 0.95676
6307.20020 0.95619
6310.60010 0.95564
6314.00000 0.95522
6317.39990 0.95445
6320.79980 0.95365
6324.20020 0.95268
6327.60010 0.952
6331.00000 0.95132
6334.39990 0.95079
6337.79980 0.95007
6341.20020 0.94909
6344.60010 0.94842
6348.00000 0.94755
6351.39990 0.94678
6354.79980 0.94595
6358.20020 0.9452
6361.60010 0.94468
6365.00000 0.94443
6368.39990 0.94395
6371.79980 0.94323
6375.20020 0.9431
6378.60010 0.94317
6382.00000 0.94303
6385.39990 0.94313
6388.70020 0.94302
6392.10010 0.94317
6395.50000 0.94341
6398.89990 0.94394
6402.29980 0.944
6405.70020 0.94427
6409.10010 0.94494
6412.50000 0.94535
6415.89990 0.94585
6419.29980 0.9466
6422.70020 0.9471
6426.10010 0.94811
6429.39990 0.94895
6432.79980 0.94978
6436.20020 0.95048
6439.60010 0.95121
6443.00000 0.95203
6446.39990 0.95283
6449.79980 0.95348
6453.20020 0.95418
6456.50000 0.95486
6459.89990 0.956
6463.29980 0.95638
6466.70020 0.9572
6470.10010 0.95778
6473.50000 0.95846
6476.79980 0.95899
6480.20020 0.95934
6483.60010 0.96001
6487.00000 0.96069
6490.39990 0.96128
6493.79980 0.96173
6497.10010 0.96174
6500.50000 0.96234
6503.89990 0.96256
6507.29980 0.96321
6510.60010 0.96358
6514.00000 0.96393
6517.39990 0.96446
6520.79980 0.96448
6524.20020 0.96432
6527.50000 0.96432
6530.89990 0.9644
6534.29980 0.96449
6537.70020 0.96409
6541.00000 0.96393
6544.39990 0.96325
6547.79980 0.96275
6551.20020 0.96252
6554.50000 0.96203
6557.89990 0.96167
6561.29980 0.96133
6564.60010 0.96091
6568.00000 0.96055
6571.39990 0.9601
6574.79980 0.95986
6578.10010 0.95935
6581.50000 0.95903
6584.89990 0.95851
6588.20020 0.95792
6591.60010 0.95771
6595.00000 0.95732
6598.29980 0.95687
6601.70020 0.95624
6605.10010 0.95588
6608.39990 0.95581
6611.79980 0.95569
6615.20020 0.95526
6618.50000 0.95533
6621.89990 0.9552
6625.29980 0.95502
6628.60010 0.95515
6632.00000 0.95533
6635.29980 0.95537
6638.70020 0.95583
6642.10010 0.95618
6645.39990 0.95634
6648.79980 0.9568
6652.10010 0.95737
6655.50000 0.95746
6658.89990 0.95803
6662.20020 0.95875
6665.60010 0.95887
6668.89990 0.95926
6672.29980 0.95977
6675.70020 0.96007
6679.00000 0.96034
6682.39990 0.9605
6685.70020 0.96051
6689.10010 0.96099
6692.39990 0.96151
6695.79980 0.9621
6699.10010 0.96249
6702.50000 0.96328
6705.89990 0.96371
6709.20020 0.96422
6712.60010 0.96452
6715.89990 0.96487
6719.29980 0.96543
6722.60010 0.96593
6726.00000 0.96628
6729.29980 0.9666
6732.70020 0.96688
6736.00000 0.96699
6739.39990 0.96675
6742.70020 0.96652
6746.10010 0.96655
6749.39990 0.96675
6752.79980 0.96639
6756.10010 0.96635
6759.39990 0.96598
6762.79980 0.96572
6766.10010 0.96548
6769.50000 0.96501
6772.79980 0.96471
6776.20020 0.96436
6779.50000 0.96405
6782.89990 0.96365
6786.20020 0.96298
6789.50000 0.96278
6792.89990 0.96222
6796.20020 0.96195
6799.60010 0.96149
6802.89990 0.96101
6806.20020 0.96053
6809.60010 0.95989
6812.89990 0.95953
6816.29980 0.95915
6819.60010 0.9588
6822.89990 0.95865
6826.29980 0.95813
6829.60010 0.95771
6833.00000 0.9573
6836.29980 0.95686
6839.60010 0.95631
6843.00000 0.95603
6846.29980 0.95599
6849.60010 0.95567
6853.00000 0.95546
6856.29980 0.95528
6859.60010 0.95514
6863.00000 0.95512
6866.29980 0.95484
6869.60010 0.95483
6873.00000 0.95458
6876.29980 0.95473
6879.60010 0.95464
6883.00000 0.95448
6886.29980 0.95451
6889.60010 0.95459
6892.89990 0.9547
6896.29980 0.95476
6899.60010 0.9547
6902.89990 0.955
6906.20020 0.95499
6909.60010 0.95526
6912.89990 0.95536
6916.20020 0.95547
6919.60010 0.95563
6922.89990 0.9559
6926.20020 0.95612
6929.50000 0.9562
6932.89990 0.95619
6936.20020 0.95635
6939.50000 0.95664
6942.79980 0.95689
6946.10010 0.95723
6949.50000 0.95739
6952.79980 0.95782
6956.10010 0.95819
6959.39990 0.95842
6962.70020 0.9587
6966.10010 0.95903
6969.39990 0.95966
6972.70020 0.96035
6976.00000 0.96053
6979.29980 0.96103
6982.70020 0.96137
6986.00000 0.96183
6989.29980 0.96216
6992.60010 0.96257
6995.89990 0.96299
6999.20020 0.96317
7002.50000 0.9632
7005.89990 0.96311
7009.20020 0.96309
7012.50000 0.96342
7015.79980 0.96339
7019.10010 0.96341
7022.39990 0.96317
7025.70020 0.96288
7029.00000 0.96262
7032.39990 0.96233
7035.70020 0.96227
7039.00000 0.96235
7042.29980 0.96234
7045.60010 0.9622
7048.89990 0.96209
7052.20020 0.96208
7055.50000 0.96214
7058.79980 0.96215
7062.10010 0.96197
7065.39990 0.96196
7068.70020 0.96185
7072.00000 0.96148
7075.39990 0.9612
7078.70020 0.96096
7082.00000 0.9609
7085.29980 0.96048
7088.60010 0.96035
7091.89990 0.95989
7095.20020 0.95967
7098.50000 0.95974
7101.79980 0.95946
7105.10010 0.95917
7108.39990 0.95928
7111.70020 0.95917
7115.00000 0.95892
7118.29980 0.95856
7121.60010 0.95849
7124.89990 0.95825
7128.20020 0.95814
7131.50000 0.95802
7134.79980 0.95807
7138.10010 0.95831
7141.39990 0.95859
7144.70020 0.9589
7148.00000 0.95894
7151.20020 0.95901
7154.50000 0.95921
7157.79980 0.95932
7161.10010 0.9595
7164.39990 0.96001
7167.70020 0.96062
7171.00000 0.9607
7174.29980 0.96059
7177.60010 0.9606
7180.89990 0.96066
7184.20020 0.96117
7187.50000 0.96177
7190.79980 0.96235
7194.00000 0.96297
7197.29980 0.9634
7200.60010 0.96366
7203.89990 0.96371
7207.20020 0.964
7210.50000 0.96474
7213.79980 0.96548
7217.10010 0.96601
7220.29980 0.96633
7223.60010 0.96656
7226.89990 0.96684
7230.20020 0.96701
7233.50000 0.96734
7236.79980 0.96774
7240.00000 0.96842
7243.29980 0.96905
7246.60010 0.96932
7249.89990 0.96954
7253.20020 0.96933
7256.50000 0.96939
7259.70020 0.96977
7263.00000 0.96995
7266.29980 0.97032
7269.60010 0.97067
7272.89990 0.97056
7276.10010 0.97035
7279.39990 0.9703
7282.70020 0.97036
7286.00000 0.97017
7289.20020 0.97044
7292.50000 0.97056
7295.79980 0.97039
7299.10010 0.97004
7302.29980 0.96975
7305.60010 0.96957
7308.89990 0.96977
7312.20020 0.96963
7315.39990 0.96936
7318.70020 0.96897
7322.00000 0.96882
7325.29980 0.96872
7328.50000 0.96885
7331.79980 0.96855
7335.10010 0.96863
7338.29980 0.96836
7341.60010 0.9679
7344.89990 0.96761
7348.10010 0.96756
7351.39990 0.96708
7354.70020 0.96696
7357.89990 0.9668
7361.20020 0.96642
7364.50000 0.96569
7367.70020 0.96542
7371.00000 0.9648
7374.29980 0.96439
7377.50000 0.96376
7380.79980 0.96313
7384.10010 0.96246
7387.29980 0.96239
7390.60010 0.9619
7393.89990 0.9616
7397.10010 0.9613
7400.39990 0.96096
7403.60010 0.96078
7406.89990 0.96072
7410.20020 0.9607
7413.39990 0.9607
7416.70020 0.96053
7419.89990 0.96037
7423.20020 0.95995
7426.50000 0.95976
7429.70020 0.95933
7433.00000 0.9588
7436.20020 0.95873
7439.50000 0.9589
7442.79980 0.95892
7446.00000 0.95875
7449.29980 0.95866
7452.50000 0.95861
7455.79980 0.95864
7459.00000 0.95895
7462.29980 0.95907
7465.50000 0.95933
7468.79980 0.95974
7472.00000 0.95969
7475.29980 0.95951
7478.50000 0.95952
7481.79980 0.95964
7485.00000 0.95998
7488.29980 0.96015
7491.50000 0.96034
7494.79980 0.96028
7498.00000 0.96066
7501.29980 0.96085
7504.50000 0.96085
7507.79980 0.9613
7511.00000 0.96127
7514.29980 0.9614
7517.50000 0.96139
7520.79980 0.96134
7524.00000 0.96179
7527.29980 0.96217
7530.50000 0.96287
7533.70020 0.96311
7537.00000 0.96314
7540.20020 0.96346
7543.50000 0.964
7546.70020 0.96458
7550.00000 0.96497
7553.20020 0.9655
7556.39990 0.96572
7559.70020 0.9657
7562.89990 0.96583
7566.20020 0.9658
7569.39990 0.96595
7572.60010 0.96644
7575.89990 0.96683
7579.10010 0.96646
7582.39990 0.96624
7585.60010 0.96644
7588.79980 0.96656
7592.10010 0.96654
7595.29980 0.96683
7598.50000 0.96724
7601.79980 0.96746
7605.00000 0.96769
7608.20020 0.96779
7611.50000 0.96793
7614.70020 0.96836
7617.89990 0.96869
7621.20020 0.96883
7624.39990 0.96897
7627.60010 0.96956
7630.89990 0.96962
7634.10010 0.96963
7637.29980 0.96955
7640.60010 0.96943
7643.79980 0.96965
7647.00000 0.96933
7650.20020 0.96907
7653.50000 0.96914
7656.70020 0.96909
7659.89990 0.96892
7663.20020 0.96878
7666.39990 0.96889
7669.60010 0.96912
7672.79980 0.96906
7676.10010 0.96929
7679.29980 0.96915
7682.50000 0.96963
7685.70020 0.96966
7689.00000 0.96968
7692.20020 0.96961
7695.39990 0.9698
7698.60010 0.96966
7701.79980 0.96975
7705.10010 0.96955
7708.29980 0.96996
7711.50000 0.96993
7714.70020 0.96969
7717.89990 0.96939
7721.20020 0.9695
7724.39990 0.96965
7727.60010 0.9699
7730.79980 0.9701
7734.00000 0.97036
7737.20020 0.97003
7740.50000 0.96983
7743.70020 0.96971
7746.89990 0.9697
7750.10010 0.96993
7753.29980 0.97021
7756.50000 0.9702
7759.70020 0.97015
7763.00000 0.96992
7766.20020 0.96972
7769.39990 0.96953
7772.60010 0.96968
7775.79980 0.96984
7779.00000 0.96987
7782.20020 0.96977
7785.39990 0.96987
7788.70020 0.96995
7791.89990 0.97011
7795.10010 0.97011
7798.29980 0.97009
7801.50000 0.97012
7804.70020 0.97024
7807.89990 0.97064
7811.10010 0.97077
7814.29980 0.9708
7817.50000 0.9711
7820.70020 0.97143
7823.89990 0.97119
7827.10010 0.97105
7830.29980 0.97108
7833.50000 0.97141
7836.70020 0.97125
7839.89990 0.9716
7843.10010 0.97145
7846.39990 0.97119
7849.60010 0.97106
7852.79980 0.97086
7856.00000 0.97025
7859.20020 0.97002
7862.39990 0.97015
7865.60010 0.96997
7868.79980 0.96956
7871.89990 0.96929
7875.10010 0.96883
7878.29980 0.96895
7881.50000 0.96893
7884.70020 0.96858
7887.89990 0.96824
7891.10010 0.96809
7894.29980 0.96816
7897.50000 0.96784
7900.70020 0.96789
7903.89990 0.96786
7907.10010 0.96837
7910.29980 0.9685
7913.50000 0.96811
7916.70020 0.96834
7919.89990 0.96878
7923.10010 0.96911
7926.29980 0.96944
7929.39990 0.96977
7932.60010 0.96994
7935.79980 0.97008
7939.00000 0.97022
7942.20020 0.97021
7945.39990 0.9708
7948.60010 0.97099
7951.79980 0.97089
7955.00000 0.97045
7958.10010 0.96993
7961.29980 0.96983
7964.50000 0.96958
7967.70020 0.96969
7970.89990 0.96953
7974.10010 0.96966
7977.29980 0.96958
7980.39990 0.96886
7983.60010 0.96865
7986.79980 0.96837
7990.00000 0.9684
7993.20020 0.96839
7996.29980 0.96821
7999.50000 0.96864
8002.70020 0.96899
8005.89990 0.96921
8009.10010 0.96922
8012.20020 0.96918
8015.39990 0.96936
8018.60010 0.96943
8021.79980 0.9694
8025.00000 0.9697
8028.10010 0.96991
8031.29980 0.96972
8034.50000 0.96923
8037.70020 0.96891
8040.79980 0.96894
8044.00000 0.96873
8047.20020 0.96872
8050.39990 0.96888
8053.50000 0.96887
8056.70020 0.96873
8059.89990 0.96851
8063.10010 0.96815
8066.20020 0.96834
8069.39990 0.96819
8072.60010 0.96784
8075.70020 0.96715
8078.89990 0.96717
8082.10010 0.96696
8085.20020 0.96654
8088.39990 0.96604
8091.60010 0.96583
8094.79980 0.96559
8097.89990 0.96584
8101.10010 0.96563
8104.29980 0.96541
8107.39990 0.96486
8110.60010 0.96487
8113.70020 0.96466
8116.89990 0.96398
8120.10010 0.96345
8123.20020 0.96355
8126.39990 0.96339
8129.60010 0.96308
8132.70020 0.96233
8135.89990 0.96205
8139.10010 0.9618
8142.20020 0.96179
8145.39990 0.96086
8148.50000 0.96009
8151.70020 0.96006
8154.89990 0.95975
8158.00000 0.95943
8161.20020 0.95915
8164.29980 0.95892
8167.50000 0.9587
8170.60010 0.95788
8173.79980 0.95733
8177.00000 0.95702
8180.10010 0.95718
8183.29980 0.95687
8186.39990 0.95656
8189.60010 0.95604
8192.70020 0.95569
8195.90039 0.95519
8199.00000 0.95479
8202.20020 0.95475
8205.40039 0.95485
8208.50000 0.9547
8211.70020 0.9545
8214.79980 0.95403
8218.00000 0.95344
8221.09961 0.95331
8224.29980 0.95352
8227.40039 0.95292
8230.59961 0.95277
8233.70020 0.95222
8236.90039 0.95184
8240.00000 0.95187
8243.20020 0.9517
8246.29980 0.95158
8249.40039 0.95142
8252.59961 0.95165
8255.70020 0.95138
8258.90039 0.95134
8262.00000 0.95112
8265.20020 0.95078
8268.29980 0.95088
8271.50000 0.95086
8274.59961 0.9502
8277.70020 0.95021
8280.90039 0.95
8284.00000 0.95035
8287.20020 0.95075
8290.29980 0.95078
8293.50000 0.95077
8296.59961 0.95143
8299.70020 0.95207
8302.90039 0.95215
8306.00000 0.95189
8309.09961 0.95263
8312.29980 0.95264
8315.40039 0.95231
8318.59961 0.95229
8321.70020 0.9522
8324.79980 0.95233
8328.00000 0.95255
8331.09961 0.95227
8334.20020 0.95198
8337.40039 0.95193
8340.50000 0.95235
8343.59961 0.95245
8346.79980 0.95301
8349.90039 0.95365
8353.00000 0.95398
8356.20020 0.95416
8359.29980 0.9547
8362.40039 0.9549
8365.59961 0.95521
8368.70020 0.95547
8371.79980 0.956
8374.90039 0.95667
8378.09961 0.95644
8381.20020 0.95655
8384.29980 0.95713
8387.50000 0.95712
8390.59961 0.95746
8393.70020 0.95771
8396.79980 0.95804
8400.00000 0.95832
8403.09961 0.95866
8406.20020 0.95931
8409.29980 0.9592
8412.50000 0.95991
8415.59961 0.96031
8418.70020 0.9598
8421.79980 0.9604
8425.00000 0.96054
8428.09961 0.96044
8431.20020 0.96026
8434.29980 0.96052
8437.40039 0.96105
8440.59961 0.96109
8443.70020 0.96105
8446.79980 0.96083
8449.90039 0.96081
8453.00000 0.96179
8456.20020 0.96168
8459.29980 0.96176
8462.40039 0.96174
8465.50000 0.96189
8468.59961 0.96211
8471.70020 0.96187
8474.90039 0.96221
8478.00000 0.96229
8481.09961 0.96285
8484.20020 0.96251
8487.29980 0.96243
8490.40039 0.96258
8493.50000 0.96232
8496.59961 0.96251
8499.79980 0.96267
8502.90039 0.96283
8506.00000 0.96292
8509.09961 0.96298
8512.20020 0.9634
8515.29980 0.96313
8518.40039 0.96354
8521.50000 0.96332
8524.59961 0.96318
8527.70020 0.96361
8530.90039 0.96361
8534.00000 0.96307
8537.09961 0.96284
8540.20020 0.96232
8543.29980 0.96172
8546.40039 0.96129
8549.50000 0.96104
8552.59961 0.96051
8555.70020 0.96023
8558.79980 0.95997
8561.90039 0.96001
8565.00000 0.96029
8568.09961 0.96108
8571.20020 0.96132
8574.29980 0.96171
8577.40039 0.96204
8580.50000 0.96236
8583.59961 0.96279
8586.70020 0.96286
8589.79980 0.96311
8592.90039 0.96334
8596.00000 0.96291
8599.09961 0.96258
8602.20020 0.96185
8605.29980 0.96134
8608.40039 0.96109
8611.50000 0.9605
8614.59961 0.96027
8617.70020 0.95968
8620.79980 0.96018
8623.90039 0.95971
8627.00000 0.95943
8630.09961 0.95926
8633.20020 0.95853
8636.20020 0.95898
8639.29980 0.959
8642.40039 0.9588
8645.50000 0.959
8648.59961 0.9587
8651.70020 0.95857
8654.79980 0.95748
8657.90039 0.95765
8661.00000 0.95723
8664.09961 0.95672
8667.09961 0.95697
8670.20020 0.95628
8673.29980 0.9556
8676.40039 0.95607
8679.50000 0.95575
8682.59961 0.95528
8685.70020 0.95477
8688.79980 0.95471
8691.79980 0.95445
8694.90039 0.95477
8698.00000 0.95509
8701.09961 0.95524
8704.20020 0.95503
8707.29980 0.95515
8710.29980 0.95479
8713.40039 0.95443
8716.50000 0.95423
8719.59961 0.95509
8722.70020 0.95549
8725.70020 0.95548
8728.79980 0.95546
8731.90039 0.95601
8735.00000 0.95565
8738.09961 0.95595
8741.09961 0.95591
8744.20020 0.95541
8747.29980 0.9559
8750.40039 0.95607
8753.40039 0.95563
8756.50000 0.95577
8759.59961 0.95568
8762.70020 0.95519
8765.70020 0.95458
8768.79980 0.9549
8771.90039 0.95483
8775.00000 0.95527
8778.00000 0.95558
8781.09961 0.95526
8784.20020 0.95539
8787.29980 0.95564
8790.29980 0.9555
8793.40039 0.95575
8796.50000 0.95602
8799.50000 0.95594
8802.59961 0.95629
8805.70020 0.95666
8808.70020 0.95678
8811.79980 0.95718
8814.90039 0.95721
8817.90039 0.95747
8821.00000 0.95777
8824.09961 0.95795
8827.09961 0.95775
8830.20020 0.95813
8833.29980 0.95869
8836.29980 0.9582
8839.40039 0.95821
8842.50000 0.9584
8845.50000 0.95871
8848.59961 0.9594
8851.59961 0.96008
8854.70020 0.95984
8857.79980 0.96033
8860.79980 0.96098
8863.90039 0.96134
8867.00000 0.96114
8870.00000 0.96136
8873.09961 0.96149
8876.09961 0.96193
8879.20020 0.96111
8882.20020 0.9608
8885.29980 0.96053
8888.40039 0.96081
8891.40039 0.96013
8894.50000 0.96027
8897.50000 0.96016
8900.59961 0.96052
8903.59961 0.96098
8906.70020 0.961
8909.70020 0.96065
8912.79980 0.96166
8915.90039 0.96117
8918.90039 0.96141
8922.00000 0.96097
8925.00000 0.96124
8928.09961 0.96077
8931.09961 0.96098
8934.20020 0.96098
8937.20020 0.96065
8940.29980 0.96104
8943.29980 0.96058
8946.40039 0.96008
8949.40039 0.96058
8952.50000 0.96046
8955.50000 0.96038
8958.50000 0.96056
8961.59961 0.96067
8964.59961 0.96051
8967.70020 0.96039
8970.70020 0.96012
8973.79980 0.96024
8976.79980 0.96037
8979.90039 0.96057
8982.90039 0.96074
8986.00000 0.96043
8989.00000 0.96073
8992.00000 0.96069
8995.09961 0.96097
8998.09961 0.96163
9001.20020 0.96177
9004.20020 0.96198
9007.20020 0.96234
9010.29980 0.9622
9013.29980 0.96206
9016.40039 0.96159
9019.40039 0.96213
9022.40039 0.96173
9025.50000 0.96135
9028.50000 0.96141
9031.50000 0.96006
9034.59961 0.95935
9037.59961 0.9591
9040.70020 0.9578
9043.70020 0.95721
9046.70020 0.95686
9049.79980 0.95634
9052.79980 0.95558
9055.79980 0.95577
9058.90039 0.956
9061.90039 0.95532
9064.90039 0.95559
9067.90039 0.95531
9071.00000 0.95534
9074.00000 0.95565
9077.00000 0.95591
9080.09961 0.956
9083.09961 0.95615
9086.09961 0.95599
9089.20020 0.95518
9092.20020 0.95455
9095.20020 0.95458
9098.20020 0.95386
9101.29980 0.95413
9104.29980 0.9541
9107.29980 0.95356
9110.29980 0.95361
9113.40039 0.95294
9116.40039 0.95272
9119.40039 0.95235
9122.40039 0.95219
9125.50000 0.9522
9128.50000 0.9516
9131.50000 0.95121
9134.50000 0.95067
9137.50000 0.9498
9140.59961 0.94925
9143.59961 0.94844
9146.59961 0.94904
9149.59961 0.94914
9152.59961 0.94915
9155.70020 0.94942
9158.70020 0.94923
9161.70020 0.9491
9164.70020 0.94872
9167.70020 0.94823
9170.79980 0.94812
9173.79980 0.94774
9176.79980 0.94812
9179.79980 0.94708
9182.79980 0.94625
9185.79980 0.94546
9188.79980 0.94456
9191.90039 0.94435
9194.90039 0.94374
9197.90039 0.94319
9200.90039 0.94346
9203.90039 0.94291
9206.90039 0.94256
9209.90039 0.94102
9212.90039 0.94062
9215.90039 0.94143
9219.00000 0.94126
9222.00000 0.94119
9225.00000 0.94049
9228.00000 0.94082
9231.00000 0.94131
9234.00000 0.94066
9237.00000 0.94029
9240.00000 0.9412
9243.00000 0.94181
9246.00000 0.94251
9249.00000 0.94127
9252.00000 0.94112
9255.00000 0.94136
9258.00000 0.94125
9261.00000 0.94056
9264.00000 0.94011
9267.09961 0.94033
9270.09961 0.94074
9273.09961 0.93983
9276.09961 0.94025
9279.09961 0.93947
9282.09961 0.93971
9285.09961 0.9397
9288.09961 0.93945
9291.09961 0.93979
9294.09961 0.93915
9297.09961 0.94042
9300.00000 0.94019
9303.00000 0.94035
9306.00000 0.9408
9309.00000 0.94028
9312.00000 0.94067
9315.00000 0.94057
9318.00000 0.94101
9321.00000 0.94022
9324.00000 0.94072
9327.00000 0.94096
9330.00000 0.94029
9333.00000 0.94008
9336.00000 0.93984
9339.00000 0.94025
9342.00000 0.94074
9345.00000 0.93973
9348.00000 0.93977
9350.90039 0.93934
9353.90039 0.94021
9356.90039 0.93933
9359.90039 0.94053
9362.90039 0.93957
9365.90039 0.94033
9368.90039 0.94034
9371.90039 0.93916
9374.90039 0.93768
9377.79980 0.93828
9380.79980 0.9378
9383.79980 0.93911
9386.79980 0.93973
9389.79980 0.94081
9392.79980 0.94035
9395.70020 0.94145
9398.70020 0.93918
9401.70020 0.93886
9404.70020 0.93959
9407.70020 0.94237
9410.70020 0.94255
9413.59961 0.94303
9416.59961 0.94206
9419.59961 0.94192
9422.59961 0.9412
9425.59961 0.93998
9428.50000 0.93943
9431.50000 0.94312
9434.50000 0.94664
9437.50000 0.94764
9440.50000 0.94539
9443.40039 0.94535
9446.40039 0.94529
9449.40039 0.94538
9452.40039 0.94673
9455.29980 0.9466
9458.29980 0.94777
9461.29980 0.94725
9464.29980 0.94727
9467.20020 0.94553
9470.20020 0.9456
9473.20020 0.94718
9476.09961 0.94602
9479.09961 0.94803
9482.09961 0.9493
9485.09961 0.94934
9488.00000 0.95069
9491.00000 0.95338
9494.00000 0.95371
9496.90039 0.95336
9499.90039 0.95322
9502.90039 0.95139
9505.79980 0.95012
9508.79980 0.95092
9511.79980 0.95188
9514.70020 0.95195
9517.70020 0.95142
9520.70020 0.95071
9523.59961 0.9491
9526.59961 0.95125
9529.59961 0.95186
9532.50000 0.95184
9535.50000 0.95311
9538.50000 0.95545
9541.40039 0.95644
9544.40039 0.95535
9547.29980 0.95528
9550.29980 0.95499
9553.29980 0.95482
9556.20020 0.95564
9559.20020 0.95522
9562.09961 0.95568
9565.09961 0.95532
9568.09961 0.95575
9571.00000 0.95594
9574.00000 0.95632
9576.90039 0.95738
9579.90039 0.95591
9582.90039 0.95652
9585.79980 0.95596
9588.79980 0.95482
9591.70020 0.95427
9594.70020 0.95383
9597.59961 0.95439
9600.59961 0.95382
9603.50000 0.95321
9606.50000 0.95294
9609.40039 0.95265
9612.40039 0.95343
9615.29980 0.95318
9618.29980 0.95331
9621.20020 0.95314
9624.20020 0.95258
9627.09961 0.95256
9630.09961 0.9529
9633.00000 0.95246
9636.00000 0.95085
9638.90039 0.95072
9641.90039 0.95057
9644.79980 0.95035
9647.79980 0.9496
9650.70020 0.94906
9653.70020 0.94797
9656.59961 0.94725
9659.59961 0.94666
9662.50000 0.94509
9665.50000 0.94446
9668.40039 0.94463
9671.29980 0.94392
9674.29980 0.94205
9677.20020 0.94088
9680.20020 0.94107
9683.09961 0.94124
9686.09961 0.94132
9689.00000 0.94184
9691.90039 0.94064
9694.90039 0.9404
9697.79980 0.94075
9700.79980 0.94012
9703.70020 0.9397
9706.59961 0.94008
9709.59961 0.93993
9712.50000 0.93894
9715.40039 0.93784
9718.40039 0.93659
9721.29980 0.9347
9724.29980 0.93385
9727.20020 0.9332
9730.09961 0.9297
9733.09961 0.92672
9736.00000 0.92289
9738.90039 0.91778
9741.90039 0.91333
9744.79980 0.90791
9747.70020 0.90097
9750.70020 0.89443
9753.59961 0.88713
9756.50000 0.87762
9759.40039 0.86722
9762.40039 0.85741
9765.29980 0.84585
9768.20020 0.83266
9771.20020 0.82041
9774.09961 0.80671
9777.00000 0.79143
9779.90039 0.77536
9782.90039 0.75828
9785.79980 0.74097
9788.70020 0.72308
9791.59961 0.70383
9794.59961 0.68331
9797.50000 0.66278
9800.40039 0.6425
9803.29980 0.62169
9806.29980 0.59948
9809.20020 0.57783
9812.09961 0.55706
9815.00000 0.53442
9818.00000 0.5129
9820.90039 0.49085
9823.79980 0.47026
9826.70020 0.44941
9829.59961 0.42995
9832.59961 0.40955
9835.50000 0.38972
9838.40039 0.3712
9841.29980 0.3527
9844.20020 0.33518
9847.20020 0.31949
9850.09961 0.30213
9853.00000 0.2872
9855.90039 0.27086
9858.79980 0.25604
9861.70020 0.24152
9864.59961 0.22921
9867.59961 0.21691
9870.50000 0.20388
9873.40039 0.19222
9876.29980 0.18151
9879.20020 0.17171
9882.09961 0.16184
9885.00000 0.15136
9887.90039 0.14255
9890.90039 0.13463
9893.79980 0.12737
9896.70020 0.12009
9899.59961 0.11347
9902.50000 0.10735
9905.40039 0.10175
9908.29980 0.09573
9911.20020 0.08961
9914.09961 0.0848
9917.00000 0.08004
9919.90039 0.07567
9922.79980 0.0715
9925.79980 0.06734
9928.70020 0.06328
9931.59961 0.05969
9934.50000 0.05756
9937.40039 0.05512
9940.29980 0.05396
9943.20020 0.05256
9946.09961 0.05153
9949.00000 0.05123
9951.90039 0.05076
9954.79980 0.04965
9957.70020 0.04905
9960.59961 0.04795
9963.50000 0.04756
9966.40039 0.04623
9969.29980 0.04476
9972.20020 0.04331
9975.09961 0.04155
9978.00000 0.03898
9980.90039 0.03738
9983.79980 0.03424
9986.70020 0.03203
9989.59961 0.02902
9992.50000 0.02624
9995.40039 0.02261
9998.29980 0.02053
10001.09961 0.01812
10004.00000 0.01465
10006.90039 0.01272
10009.79980 0.01135
10012.70020 0.00993
10015.59961 0.0096
10018.50000 0.00896
10021.40039 0.00808
10024.29980 0.00769
10027.20020 0.00817
10030.09961 0.00722
10033.00000 0.00687
10035.79980 0.00675
10038.70020 0.00584
10041.59961 0.00573
10044.50000 0.00479
10047.40039 0.00437
10050.29980 0.004
10053.20020 0.00415
10056.09961 0.00406
10058.90039 0.00362
10061.79980 0.00352
10064.70020 0.00338
10067.59961 0.0039
10070.50000 0.00375
10073.40039 0.00396
10076.20020 0.00349
10079.09961 0.00369
10082.00000 0.00385
10084.90039 0.00373
10087.79980 0.00357
10090.70020 0.00346
10093.50000 0.0033
10096.40039 0.00352
10099.29980 0.00269
10102.20020 0.00323
10105.00000 0.00306
10107.90039 0.00361
10110.79980 0.00345
10113.70020 0.00333
10116.59961 0.00351
10119.40039 0.00408
10122.29980 0.00355
10125.20020 0.00378
10128.09961 0.0036
10130.90039 0.0042
10133.79980 0.00366
10136.70020 0.00426
10139.59961 0.00372
10142.40039 0.00396
10145.29980 0.00378
10148.20020 0.00365
10151.00000 0.00385
10153.90039 0.00372
10156.79980 0.00352
10159.70020 0.00377
10162.50000 0.00357
10165.40039 0.00421
10168.29980 0.00322
10171.09961 0.00348
10174.00000 0.00286
10176.90039 0.00312
10179.70020 0.00291
10182.59961 0.00275
10185.50000 0.00254
10188.29980 0.00322
10191.20020 0.00301
10194.09961 0.00286
10196.90039 0.00221
10199.79980 0.00247
10202.70020 0.00268
10205.50000 0.00296
10208.40039 0.00272
10211.20020 0.003
10214.09961 0.00232
10217.00000 0.00306
10219.79980 0.00236
10222.70020 0.00311
10225.59961 0.00286
10228.40039 0.00315
10231.29980 0.00291
10234.09961 0.00273
10237.00000 0.00248
10239.79980 0.00279
10242.70020 0.00301
10245.59961 0.00332
10248.40039 0.00206
10251.29980 0.00236
10254.09961 0.00158
10257.00000 0.0029
10259.79980 0.00263
10262.70020 0.00294
10265.59961 0.00267
10268.40039 0.00507
10271.29980 0.00482
10274.09961 0.00517
10277.00000 0.00544
10279.79980 0.00634
10282.70020 0.00608
10285.50000 0.00645
10288.40039 0.00508
10291.20020 0.00543
10294.09961 0.00515
10296.90039 0.0055
10299.79980 0.00294
10302.59961 0.00329
11332.85938 0.0
