# %ECSV 0.9
# ---
# datatype:
# - {name: wavelength, unit: Angstrom, datatype: float32}
# - {name: response, datatype: float32}
# meta: !!omap
# - {band_name: J}
# - {group_name: MMIRS}
wavelength response
9000.00000 0.0
10000.00000 0.000154
10010.00000 0.0
10020.00000 0.0
10030.00000 0.0
10040.00000 5.7e-05
10050.00000 5.7e-05
10060.00000 3.5e-05
10070.00000 9.8e-05
10080.00000 7.2e-05
10090.00000 2.3e-05
10100.00000 0.000116
10110.00000 0.000106
10120.00000 0.000126
10130.00000 0.0
10140.00000 0.0
10150.00000 0.0
10160.00000 0.000314
10170.00000 0.000635
10180.00000 0.000191
10190.00000 0.0
10200.00000 0.0
10210.00000 6.4e-05
10220.00000 0.000132
10230.00000 9.6e-05
10240.00000 9.8e-05
10250.00000 9.6e-05
10260.00000 0.0
10270.00000 0.0
10280.00000 0.0
10290.00000 0.0
10300.00000 0.000286
10310.00000 0.000595
10320.00000 0.000135
10330.00000 9.7e-05
10340.00000 0.0
10350.00000 0.0
10360.00000 0.0
10370.00000 9e-06
10380.00000 0.0
10390.00000 1.2e-05
10400.00000 1.4e-05
10410.00000 0.0
10420.00000 1.7e-05
10430.00000 6e-06
10440.00000 1.4e-05
10450.00000 0.0
10460.00000 0.0
10470.00000 5e-06
10480.00000 5.2e-05
10490.00000 2.5e-05
10500.00000 3e-06
10510.00000 6.3e-05
10520.00000 0.000129
10530.00000 7.7e-05
10540.00000 0.0
10550.00000 0.0
10560.00000 3.9e-05
10570.00000 3.3e-05
10580.00000 0.0
10590.00000 3e-06
10600.00000 7e-05
10610.00000 3.8e-05
10620.00000 0.0
10630.00000 0.0
10640.00000 0.0
10650.00000 0.0
10660.00000 1.8e-05
10670.00000 4.1e-05
10680.00000 2.9e-05
10690.00000 2.9e-05
10700.00000 1.5e-05
10710.00000 0.0
10720.00000 0.0
10730.00000 0.0
10740.00000 0.0
10750.00000 5.9e-05
10760.00000 2.3e-05
10770.00000 1e-05
10780.00000 0.0
10790.00000 1e-05
10800.00000 6.1e-05
10810.00000 0.000135
10820.00000 9e-05
10830.00000 0.000124
10840.00000 0.000174
10850.00000 0.000147
10860.00000 9.6e-05
10870.00000 0.0
10880.00000 0.0
10890.00000 0.000114
10900.00000 6.6e-05
10910.00000 0.000122
10920.00000 0.000168
10930.00000 0.000293
10940.00000 0.000213
10950.00000 0.0
10960.00000 0.0
10970.00000 0.000122
10980.00000 6.9e-05
10990.00000 8.9e-05
11000.00000 9.1e-05
11010.00000 7.6e-05
11020.00000 0.000142
11030.00000 0.000193
11040.00000 9.9e-05
11050.00000 0.0
11060.00000 0.0
11070.00000 9.9e-05
11080.00000 6e-05
11090.00000 7.8e-05
11100.00000 8.7e-05
11110.00000 2.1e-05
11120.00000 0.000125
11130.00000 0.000174
11140.00000 8.9e-05
11150.00000 0.000188
11160.00000 8.9e-05
11170.00000 0.000191
11180.00000 0.000193
11190.00000 0.000274
11200.00000 0.000369
11210.00000 0.00046
11220.00000 0.000405
11230.00000 0.0
11240.00000 0.000428
11250.00000 0.000657
11260.00000 0.000796
11270.00000 0.000994
11280.00000 0.001193
11290.00000 0.001372
11300.00000 0.001584
11310.00000 0.00184
11320.00000 0.001897
11330.00000 0.00208
11340.00000 0.002216
11350.00000 0.002326
11360.00000 0.00246
11370.00000 0.002494
11380.00000 0.002661
11390.00000 0.002903
11400.00000 0.002949
11410.00000 0.003202
11420.00000 0.003555
11430.00000 0.003876
11440.00000 0.004284
11450.00000 0.004995
11460.00000 0.005658
11470.00000 0.006526
11480.00000 0.007774
11490.00000 0.009266
11500.00000 0.011185
11510.00000 0.013606
11520.00000 0.016934
11530.00000 0.02109
11540.00000 0.026664
11550.00000 0.033787
11560.00000 0.043133
11570.00000 0.054874
11580.00000 0.070039
11590.00000 0.088278
11600.00000 0.1101
11610.00000 0.13595
11620.00000 0.163
11630.00000 0.19217
11640.00000 0.22132
11650.00000 0.24901
11660.00000 0.27657
11670.00000 0.30442
11680.00000 0.3309
11690.00000 0.35889
11700.00000 0.38853
11710.00000 0.42096
11720.00000 0.45654
11730.00000 0.4982
11740.00000 0.54117
11750.00000 0.58797
11760.00000 0.63471
11770.00000 0.68202
11780.00000 0.72601
11790.00000 0.76511
11800.00000 0.79771
11810.00000 0.82323
11820.00000 0.8407
11830.00000 0.85178
11840.00000 0.85741
11850.00000 0.85875
11860.00000 0.85787
11870.00000 0.85556
11880.00000 0.853
11890.00000 0.85076
11900.00000 0.84899
11910.00000 0.84813
11920.00000 0.84786
11930.00000 0.84822
11940.00000 0.84907
11950.00000 0.84988
11960.00000 0.85039
11970.00000 0.85065
11980.00000 0.85055
11990.00000 0.8501
12000.00000 0.84908
12010.00000 0.84787
12020.00000 0.8464
12030.00000 0.84455
12040.00000 0.84294
12050.00000 0.84125
12060.00000 0.83982
12070.00000 0.83854
12080.00000 0.83731
12090.00000 0.83676
12100.00000 0.83659
12110.00000 0.83684
12120.00000 0.83742
12130.00000 0.83845
12140.00000 0.83963
12150.00000 0.8411
12160.00000 0.84279
12170.00000 0.84474
12180.00000 0.84681
12190.00000 0.84886
12200.00000 0.85094
12210.00000 0.85319
12220.00000 0.85569
12230.00000 0.8578
12240.00000 0.85991
12250.00000 0.86188
12260.00000 0.8638
12270.00000 0.86559
12280.00000 0.86712
12290.00000 0.86859
12300.00000 0.86987
12310.00000 0.87091
12320.00000 0.87175
12330.00000 0.87251
12340.00000 0.87321
12350.00000 0.87374
12360.00000 0.87422
12370.00000 0.87477
12380.00000 0.87508
12390.00000 0.87534
12400.00000 0.87596
12410.00000 0.87666
12420.00000 0.87737
12430.00000 0.8783
12440.00000 0.87933
12450.00000 0.88062
12460.00000 0.88198
12470.00000 0.88339
12480.00000 0.88482
12490.00000 0.88621
12500.00000 0.88772
12510.00000 0.88907
12520.00000 0.89053
12530.00000 0.89187
12540.00000 0.89292
12550.00000 0.89386
12560.00000 0.89459
12570.00000 0.89526
12580.00000 0.89566
12590.00000 0.89587
12600.00000 0.896
12610.00000 0.89603
12620.00000 0.89602
12630.00000 0.8959
12640.00000 0.89566
12650.00000 0.8956
12660.00000 0.8954
12670.00000 0.89523
12680.00000 0.89517
12690.00000 0.89509
12700.00000 0.8949
12710.00000 0.89495
12720.00000 0.89506
12730.00000 0.89505
12740.00000 0.89503
12750.00000 0.89527
12760.00000 0.89531
12770.00000 0.89542
12780.00000 0.8956
12790.00000 0.89601
12800.00000 0.89642
12810.00000 0.89656
12820.00000 0.89675
12830.00000 0.89714
12840.00000 0.89725
12850.00000 0.89767
12860.00000 0.89807
12870.00000 0.89844
12880.00000 0.89876
12890.00000 0.89894
12900.00000 0.89925
12910.00000 0.89956
12920.00000 0.89997
12930.00000 0.90045
12940.00000 0.90073
12950.00000 0.90139
12960.00000 0.90203
12970.00000 0.90283
12980.00000 0.90383
12990.00000 0.90467
13000.00000 0.90562
13010.00000 0.90693
13020.00000 0.90841
13030.00000 0.91025
13040.00000 0.91183
13050.00000 0.91362
13060.00000 0.91538
13070.00000 0.91705
13080.00000 0.91879
13090.00000 0.92036
13100.00000 0.92133
13110.00000 0.92214
13120.00000 0.92265
13130.00000 0.92258
13140.00000 0.9222
13150.00000 0.92084
13160.00000 0.91875
13170.00000 0.9155
13180.00000 0.91065
13190.00000 0.90419
13200.00000 0.8942
13210.00000 0.88084
13220.00000 0.86228
13230.00000 0.83836
13240.00000 0.80796
13250.00000 0.77132
13260.00000 0.72457
13270.00000 0.67393
13280.00000 0.6156
13290.00000 0.55415
13300.00000 0.49123
13310.00000 0.42949
13320.00000 0.37058
13330.00000 0.31759
13340.00000 0.26864
13350.00000 0.22746
13360.00000 0.19075
13370.00000 0.16041
13380.00000 0.13316
13390.00000 0.11183
13400.00000 0.093972
13410.00000 0.080104
13420.00000 0.068149
13430.00000 0.058113
13440.00000 0.050079
13450.00000 0.043207
13460.00000 0.037538
13470.00000 0.03276
13480.00000 0.028684
13490.00000 0.025335
13500.00000 0.022598
13510.00000 0.020016
13520.00000 0.017885
13530.00000 0.016026
13540.00000 0.0145
13550.00000 0.012957
13560.00000 0.011748
13570.00000 0.010634
13580.00000 0.009593
13590.00000 0.008716
13600.00000 0.00801
13610.00000 0.007319
13620.00000 0.006582
13630.00000 0.005719
13640.00000 0.00475
13650.00000 0.004729
13660.00000 0.004261
13670.00000 0.00395
13680.00000 0.003512
13690.00000 0.003076
13700.00000 0.002558
13710.00000 0.001944
13720.00000 0.00212
13730.00000 0.001906
13740.00000 0.00174
13750.00000 0.00165
13760.00000 0.001459
13770.00000 0.001111
13780.00000 0.000563
13790.00000 0.000498
13800.00000 0.000868
13810.00000 0.001118
13820.00000 0.001344
13830.00000 0.000447
13840.00000 0.0
13850.00000 1.1e-05
13860.00000 0.000393
13870.00000 0.000327
13880.00000 0.000327
13890.00000 0.000329
13900.00000 0.000286
13910.00000 0.000271
13920.00000 0.000316
13930.00000 0.000271
13940.00000 0.000287
13950.00000 0.000322
13960.00000 0.00039
13970.00000 0.000486
13980.00000 0.000616
13990.00000 0.000747
14000.00000 0.000372
14010.00000 0.0
14020.00000 0.0
14030.00000 0.0
14040.00000 0.0
14050.00000 0.0
14060.00000 0.0
14070.00000 8.5e-05
14080.00000 0.000145
14090.00000 0.000184
14100.00000 0.000197
14110.00000 0.000152
14120.00000 0.000196
14130.00000 0.000263
14140.00000 0.000331
14150.00000 0.000467
14160.00000 0.000489
14170.00000 9.2e-05
14180.00000 0.0
14190.00000 0.0
14200.00000 0.0
14210.00000 0.0
14220.00000 8.2e-05
14230.00000 2.6e-05
14240.00000 4.1e-05
14250.00000 8.4e-05
14260.00000 7.5e-05
14270.00000 0.000103
14280.00000 5.8e-05
14290.00000 1.6e-05
14300.00000 6.6e-05
14310.00000 8.5e-05
14320.00000 7.8e-05
14330.00000 0.000163
14340.00000 0.000147
14350.00000 0.000157
14360.00000 0.000293
14370.00000 0.000294
14380.00000 0.000364
14390.00000 0.000455
14400.00000 0.000573
14410.00000 0.000644
14420.00000 0.000164
14430.00000 0.0
14440.00000 0.0
14450.00000 0.0
14460.00000 0.0
14470.00000 0.0
14480.00000 0.0
14490.00000 0.0
14500.00000 3.1e-05
14510.00000 2.1e-05
14520.00000 3.4e-05
14530.00000 6.1e-05
14540.00000 8.9e-05
14550.00000 5.7e-05
14560.00000 0.000108
14570.00000 0.000212
14580.00000 0.000209
14590.00000 0.000257
14600.00000 0.0004
14610.00000 0.000351
14620.00000 0.0
14630.00000 0.0
14640.00000 0.0
14650.00000 0.0
14660.00000 4.9e-05
14670.00000 3.5e-05
14680.00000 0.000133
14690.00000 0.000119
14700.00000 0.000126
14710.00000 0.000276
14720.00000 0.000295
14730.00000 0.000477
14740.00000 0.000458
14750.00000 0.0
14760.00000 0.0
14770.00000 0.0
14780.00000 0.0
14790.00000 0.000139
14800.00000 3e-06
14810.00000 0.000108
14820.00000 0.000104
14830.00000 0.0002
14840.00000 0.000244
14850.00000 0.000288
14860.00000 0.000506
14870.00000 0.000571
14880.00000 0.0
14890.00000 0.0
14900.00000 0.0
14910.00000 0.0
14920.00000 0.0
14930.00000 0.0
14940.00000 1.7e-05
14950.00000 5.1e-05
14960.00000 0.0
