# %ECSV 0.9
# ---
# datatype:
# - {name: wavelength, unit: Angstrom, datatype: float32}
# - {name: response, datatype: float32}
# meta: !!omap
# - {band_name: Hk3}
# - {group_name: MMIRS}
wavelength response
4289.75977 0.0
4766.39990 4.066e-07
4776.50000 5.33e-08
4786.70020 2.348e-07
4796.79980 1.5019e-06
4806.89990 1.94e-08
4817.00000 1e-10
4827.10010 3.9e-09
4837.20020 1e-10
4847.29980 4.357e-07
4857.39990 1e-10
4867.50000 6.979e-07
4877.60010 8.1e-08
4887.79980 1e-10
4897.89990 1e-10
4908.00000 4.774e-07
4918.10010 1.024e-07
4928.20020 1.944e-07
4938.29980 1e-10
4948.39990 2.727e-07
4958.50000 1e-10
4968.60010 1e-10
4978.70020 3.13e-07
4988.79980 1e-10
4998.89990 1e-10
5009.10010 1e-10
5019.20020 5.308e-07
5029.29980 1e-10
5039.39990 5.972e-07
5049.50000 1e-10
5059.60010 1e-10
5069.70020 5.249e-07
5079.79980 1e-10
5089.89990 1e-10
5100.00000 1.296e-07
5110.10010 1e-10
5120.20020 7.982e-07
5130.39990 1e-10
5140.50000 6.309e-07
5150.60010 1e-10
5160.70020 1e-10
5170.79980 1e-10
5180.89990 6.002e-07
5191.00000 7.326e-07
5201.10010 7.186e-07
5211.20020 1e-10
5221.29980 7.403e-07
5231.39990 1e-10
5241.60010 1e-10
5251.70020 9.24e-08
5261.79980 3.007e-07
5271.89990 3.48e-07
5282.00000 3.281e-07
5292.10010 6.02e-07
5302.20020 1e-10
5312.29980 9.47e-08
5322.39990 1.3672e-06
5332.50000 3.66e-07
5342.60010 3.071e-07
5352.79980 6.092e-07
5362.89990 1e-10
5373.00000 1e-10
5383.10010 2.827e-07
5393.20020 1e-10
5403.29980 6.712e-07
5413.39990 9.74e-08
5423.50000 1e-10
5433.60010 1e-10
5443.70020 1.561e-07
5453.79980 1e-10
5463.89990 1.5692e-06
5474.10010 6.591e-07
5484.20020 4.787e-07
5494.29980 1e-10
5504.39990 1e-10
5514.50000 2.36e-07
5524.60010 1e-10
5534.70020 3.575e-07
5544.79980 1e-10
5554.89990 1e-10
5565.00000 6.108e-07
5575.10010 1e-10
5585.29980 1e-10
5595.39990 4.645e-07
5605.50000 1e-10
5615.60010 1e-10
5625.70020 5.836e-07
5635.79980 6.376e-07
5645.89990 1e-10
5656.00000 1e-10
5666.10010 8.92e-08
5676.20020 2.175e-07
5686.39990 1.265e-07
5696.39990 1.938e-07
5706.60010 1e-10
5716.70020 2.437e-07
5726.79980 1e-10
5736.89990 2.273e-07
5747.00000 1e-10
5757.10010 3.569e-07
5767.20020 1.544e-07
5777.29980 1e-10
5787.39990 1e-10
5797.50000 7.111e-07
5807.60010 1e-10
5817.79980 1e-10
5827.89990 1e-10
5838.00000 6.35e-08
5848.10010 2.426e-07
5858.20020 3.705e-07
5868.29980 1.689e-07
5878.39990 1e-10
5888.50000 1e-10
5898.60010 9.919e-07
5908.70020 1e-10
5918.89990 7.31e-07
5929.00000 2.429e-07
5939.10010 9.87e-08
5949.20020 7.718e-07
5959.29980 1.822e-07
5969.39990 6.491e-07
5979.50000 8.15e-08
5989.60010 4.93e-07
5999.70020 1.958e-07
6009.79980 4.599e-07
6019.89990 1e-10
6030.00000 2.75e-07
6040.10010 2.515e-07
6050.29980 1.0373e-06
6060.39990 9.043e-07
6070.50000 1e-10
6080.60010 6.708e-07
6090.70020 4.81e-08
6100.79980 6.13e-08
6110.89990 1e-10
6121.00000 9.792e-07
6131.10010 1e-10
6141.20020 1.0905e-06
6151.39990 1e-10
6161.50000 1e-10
6171.60010 4.796e-07
6181.70020 7.42e-07
6191.79980 2.302e-07
6201.89990 6.396e-07
6212.00000 1e-10
6222.10010 5.182e-07
6232.20020 1e-10
6242.29980 6.582e-07
6252.39990 1e-10
6262.60010 1.122e-07
6272.70020 3.288e-07
6282.79980 2.493e-07
6292.89990 5.2e-09
6303.00000 2.231e-07
6313.10010 3.759e-07
6323.20020 1e-10
6333.29980 1e-10
6343.39990 2.593e-07
6353.50000 1.013e-07
6363.60010 4.608e-07
6373.70020 1e-10
6383.89990 3.457e-07
6394.00000 1e-10
6404.10010 7.924e-07
6414.20020 1.385e-07
6424.29980 1e-10
6434.39990 7.529e-07
6444.50000 1e-10
6454.60010 5.833e-07
6464.70020 4.878e-07
6474.79980 1e-10
6484.89990 2.161e-07
6495.10010 4.734e-07
6505.20020 1e-10
6515.29980 1e-10
6525.39990 1e-10
6535.50000 1e-10
6545.60010 1.0205e-06
6555.70020 2.156e-07
6565.79980 3.42e-07
6575.89990 1e-10
6586.00000 1e-10
6596.10010 5.338e-07
6606.20020 1e-10
6616.39990 2.226e-07
6626.50000 1e-10
6636.60010 1.648e-07
6646.70020 3.635e-07
6656.79980 3.329e-07
6666.89990 1.489e-07
6677.00000 1e-10
6687.10010 6.282e-07
6697.20020 5.059e-07
6707.29980 1.2421e-06
6717.39990 4.989e-07
6727.60010 1e-10
6737.70020 3.22e-07
6747.79980 1e-10
6757.89990 1e-10
6768.00000 1e-10
6778.10010 1.6012e-06
6788.20020 1e-10
6798.29980 5.648e-07
6808.39990 1e-10
6818.50000 1e-10
6828.60010 3.522e-07
6838.79980 1e-10
6848.89990 1e-10
6859.00000 3.507e-07
6869.10010 1e-10
6879.20020 1.8624e-06
6889.29980 1.6765e-06
6899.39990 1.3427e-06
6909.50000 4.03e-08
6919.60010 1e-10
6929.70020 2.78e-07
6939.79980 1e-10
6949.89990 1e-10
6960.10010 1e-10
6970.20020 1.507e-07
6980.29980 1.59e-07
6990.39990 1.4891e-06
7000.50000 3.1881e-06
7010.60010 1e-10
7020.70020 1e-10
7030.79980 1.4137e-06
7040.89990 1e-10
7051.00000 1e-10
7061.10010 1e-10
7071.20020 9.516e-07
7081.39990 1.9291e-06
7091.50000 1e-10
7101.60010 1e-10
7111.70020 1e-10
7121.79980 1e-10
7131.89990 4.4867e-06
7142.00000 1e-10
7152.10010 2.1414e-06
7162.20020 2.037e-06
7172.29980 1e-10
7182.39990 1e-10
7192.60010 2.2644e-06
7202.70020 1e-10
7212.79980 1e-10
7222.89990 1e-10
7233.00000 1e-10
7243.10010 1e-10
7253.20020 2.761e-07
7263.29980 1e-10
7273.39990 2.5585e-06
7283.50000 1e-10
7293.60010 5.2494e-06
7303.79980 7.881e-06
7313.89990 8.818e-07
7324.00000 1e-10
7334.10010 1.7481e-06
7344.20020 1.2648e-06
7354.29980 1e-10
7364.39990 1e-10
7374.50000 1e-10
7384.60010 1e-10
7394.70020 8.653e-07
7404.79980 4.35e-07
7414.89990 1e-10
7425.10010 4.7417e-06
7435.20020 7.6745e-06
7445.29980 3.9992e-06
7455.39990 1e-10
7465.50000 2.9799e-06
7475.60010 1e-10
7485.70020 1e-10
7495.79980 1e-10
7505.89990 4.8506e-06
7516.00000 8.8486e-06
7526.10010 1e-10
7536.29980 5.4369e-06
7546.39990 1e-10
7556.50000 1.8224e-06
7566.60010 3.8221e-06
7576.70020 1.7256e-06
7586.79980 1e-10
7596.89990 8.8169e-06
7607.00000 1e-10
7617.10010 1e-10
7627.20020 5.7731e-06
7637.29980 1e-10
7647.39990 1e-10
7657.60010 4.1849e-06
7667.70020 6.0806e-06
7677.79980 8.3228e-06
7687.89990 1e-10
7698.00000 1e-10
7708.10010 1e-10
7718.20020 1e-10
7728.29980 5.6403e-06
7738.39990 1e-10
7748.50000 1e-10
7758.60010 1e-10
7768.79980 2.503e-07
7778.89990 1e-10
7789.00000 1e-10
7799.10010 5.3875e-06
7809.20020 1e-10
7819.29980 1e-10
7829.39990 1e-10
7839.50000 1e-10
7849.60010 1e-10
7859.70020 3.7318e-06
7869.89990 8.2863e-06
7880.00000 1.51906e-05
7890.10010 9.7884e-06
7900.20020 1e-10
7910.29980 1.5609e-06
7920.39990 1e-10
7930.50000 2.071e-07
7940.60010 1e-10
7950.70020 2.0321e-06
7960.79980 2.6655e-06
7970.89990 1e-10
7981.00000 1e-10
7991.10010 1e-10
8001.29980 1e-10
8011.39990 1e-10
8021.50000 2.5867e-06
8031.60010 1.10444e-05
8041.70020 1e-10
8051.79980 1.23051e-05
8061.89990 1.68114e-05
8072.00000 1.95059e-05
8082.10010 1e-10
8092.20020 1e-10
8102.39990 1.86473e-05
8112.50000 1.41777e-05
8122.60010 1.698e-06
8132.70020 1e-10
8142.79980 4.11925e-05
8152.89990 1e-10
8163.00000 6.488e-06
8173.10010 1.42921e-05
8183.20020 3.40832e-05
8193.29980 1e-10
8203.40039 3.04093e-05
8213.50000 1e-10
8223.59961 1e-10
8233.79980 1e-10
8243.90039 1e-10
8254.00000 2.1958e-06
8264.09961 4.01088e-05
8274.20020 1.7946e-06
8284.29980 1e-10
8294.40039 1.12364e-05
8304.50000 1e-10
8314.59961 1e-10
8324.70020 1e-10
8334.90039 2.0824e-06
8345.00000 1e-10
8355.09961 6.8799e-06
8365.20020 2.5129e-06
8375.29980 7.0261e-06
8385.40039 1e-10
8395.50000 1e-10
8405.59961 1e-10
8415.70020 1e-10
8425.79980 1e-10
8435.90039 5.9097e-06
8446.00000 1e-10
8456.20020 1.5823e-06
8466.29980 6.5044e-06
8476.40039 3.6501e-06
8486.50000 9.9234e-06
8496.59961 9.926e-07
8506.70020 1e-10
8516.79980 9.601e-07
8526.90039 5.672e-07
8537.00000 5.9379e-06
8547.09961 1e-10
8557.20020 1e-10
8567.40039 6.9995e-06
8577.50000 1e-10
8587.59961 1e-10
8597.70020 1e-10
8607.79980 9.803e-07
8617.90039 2.4405e-06
8628.00000 5.5324e-06
8638.09961 3.8018e-06
8648.20020 9.078e-07
8658.29980 1e-10
8668.40039 3.8918e-06
8678.50000 3.7198e-06
8688.70020 3.282e-07
8698.79980 2.3544e-06
8708.90039 4.9003e-06
8719.00000 1e-10
8729.09961 1.3934e-06
8739.20020 3.9757e-06
8749.29980 1e-10
8759.40039 1e-10
8769.50000 1e-10
8779.59961 1.5157e-06
8789.79980 1e-10
8799.90039 2.4027e-06
8810.00000 6.36e-07
8820.09961 3.1596e-06
8830.20020 1.1352e-06
8840.29980 1e-10
8850.40039 1.5862e-06
8860.50000 1e-10
8870.59961 1e-10
8880.70020 1.1609e-06
8890.79980 1e-10
8900.90039 1.126e-06
8911.00000 1e-10
8921.20020 1e-10
8931.29980 1e-10
8941.40039 2.6039e-06
8951.50000 1e-10
8961.59961 2.7283e-06
8971.70020 1e-10
8981.79980 1e-10
8991.90039 1e-10
9002.00000 2.181e-07
9012.09961 9.72e-08
9022.20020 8.547e-07
9032.40039 9.633e-07
9042.50000 1e-10
9052.59961 3.737e-07
9062.70020 1.4299e-06
9072.79980 1e-10
9082.90039 1e-10
9093.00000 1e-10
9103.09961 1e-10
9113.20020 6.418e-07
9123.29980 5.73e-07
9133.50000 1e-10
9143.59961 1e-10
9153.70020 1e-10
9163.79980 1e-10
9173.90039 1e-10
9184.00000 1.3819e-06
9194.09961 1.3313e-06
9204.20020 1.3543e-06
9214.29980 1e-10
9224.40039 1.255e-06
9234.50000 1.401e-07
9244.59961 1e-10
9254.79980 1e-10
9264.90039 1e-10
9275.00000 1e-10
9285.09961 1.1525e-06
9295.20020 1e-10
9305.29980 8.441e-07
9315.40039 6.683e-07
9325.50000 1.1887e-06
9335.59961 5.931e-07
9345.70020 1e-10
9355.79980 9.06e-07
9366.00000 1e-10
9376.09961 1e-10
9386.20020 4.654e-07
9396.29980 2.344e-07
9406.40039 1e-10
9416.50000 1e-10
9426.59961 1e-10
9436.70020 1.042e-06
9446.79980 1.1931e-06
9456.90039 1e-10
9467.00000 3.772e-07
9477.09961 4.39e-07
9487.20020 1e-10
9497.40039 5.938e-07
9507.50000 1e-10
9517.59961 1.7802e-06
9527.70020 1e-10
9537.79980 1.2447e-06
9547.90039 1e-10
9558.00000 3.869e-07
9568.09961 1.4685e-06
9578.20020 1.2132e-06
9588.29980 1.7895e-06
9598.50000 1e-10
9608.59961 1e-10
9618.70020 3.316e-07
9628.79980 2.154e-07
9638.90039 1e-10
9649.00000 5.72e-07
9659.09961 1e-10
9669.20020 7.926e-07
9679.29980 1.118e-06
9689.40039 4.092e-07
9699.50000 1.37e-08
9709.59961 9.16e-07
9719.79980 4.97e-07
9729.90039 1.2286e-06
9740.00000 1e-10
9750.09961 2.355e-07
9760.20020 1e-10
9770.29980 1.1629e-06
9780.40039 1e-10
9790.50000 6.386e-07
9800.59961 9.987e-07
9810.70020 5.345e-07
9820.79980 1e-10
9831.00000 1e-10
9841.09961 8.288e-07
9851.20020 1e-10
9861.29980 1e-10
9871.40039 1.9939e-06
9881.50000 1e-10
9891.59961 1e-10
9901.70020 1e-10
9911.79980 1e-10
9921.90039 3.232e-07
9932.00000 1e-10
9942.09961 5.842e-07
9952.29980 1e-10
9962.40039 1e-10
9972.50000 1e-10
9982.59961 3.631e-07
9992.70020 4.779e-07
10002.79980 1e-10
10012.90039 1e-10
10023.00000 8.702e-07
10033.09961 1e-10
10043.20020 8.71e-07
10053.29980 1e-10
10063.50000 2.53e-08
10073.59961 1.3251e-06
10083.70020 6.485e-07
10093.79980 1.1224e-06
10103.90039 4.391e-07
10114.00000 1e-10
10124.09961 1e-10
10134.20020 3.898e-07
10144.29980 2.014e-07
10154.40039 1e-10
10164.50000 1e-10
10174.70020 1.945e-07
10184.79980 5.689e-07
10194.90039 1.619e-06
10205.00000 3.223e-07
10215.09961 6.082e-07
10225.20020 1.25e-08
10235.29980 1e-10
10245.40039 1.2578e-06
10255.50000 5.898e-07
10265.59961 1e-10
10275.70020 1e-10
10285.79980 1.7527e-06
10296.00000 6.1e-09
10306.09961 1e-10
10316.20020 1e-10
10326.29980 2.372e-07
10336.40039 9.204e-07
10346.50000 8.508e-07
10356.59961 1e-10
10366.70020 1e-10
10376.79980 1e-10
10386.90039 1e-10
10397.00000 1.7205e-06
10407.20020 1e-10
10417.29980 3.546e-07
10427.40039 5.462e-07
10437.50000 1.0657e-06
10447.59961 1e-10
10457.70020 1.2335e-06
10467.79980 1.1179e-06
10477.90039 3.71e-07
10488.00000 1e-10
10498.09961 1e-10
10508.20020 1e-10
10518.40039 1e-10
10528.50000 1.193e-07
10538.59961 1.3941e-06
10548.70020 1e-10
10558.79980 8.47e-08
10568.90039 2.46e-08
10579.00000 1e-10
10589.09961 1.811e-07
10599.20020 2.2221e-06
10609.29980 1.0885e-06
10619.40039 1.07e-07
10629.50000 1e-10
10639.70020 6.437e-07
10649.79980 1e-10
10659.90039 1.2235e-06
10670.00000 1.055e-07
10680.09961 3.074e-07
10690.20020 4.107e-07
10700.29980 5.4e-07
10710.40039 8.11e-07
10720.50000 2.363e-07
10730.59961 1e-10
10740.70020 1.0255e-06
10750.90039 1e-10
10761.00000 1e-10
10771.09961 4.935e-07
10781.20020 1e-10
10791.29980 5.45e-08
10801.40039 9.28e-08
10811.50000 1.7503e-06
10821.59961 2.2453e-06
10831.70020 9.397e-07
10841.79980 1.0955e-06
10851.90039 6.684e-07
10862.09961 1.0896e-06
10872.20020 1e-10
10882.29980 1.611e-07
10892.40039 9.922e-07
10902.50000 4.389e-07
10912.59961 7.831e-07
10922.70020 6.642e-07
10932.79980 6.97e-07
10942.90039 1.0997e-06
10953.00000 1.6829e-06
10963.09961 1.1237e-06
10973.20020 1e-10
10983.40039 1.3353e-06
10993.50000 6.173e-07
11003.59961 1.3334e-06
11013.70020 2.246e-06
11023.79980 1.0069e-06
11033.90039 1.2971e-06
11044.00000 4.978e-07
11054.09961 1.3492e-06
11064.20020 1.4617e-06
11074.29980 1.2475e-06
11084.40039 6.499e-07
11094.59961 1.7554e-06
11104.70020 1.1956e-06
11114.79980 1.4888e-06
11124.90039 1.7914e-06
11135.00000 2.071e-06
11145.09961 2.1067e-06
11155.20020 3.4048e-06
11165.29980 3.3195e-06
11175.40039 2.1604e-06
11185.50000 3.2892e-06
11195.59961 3.3342e-06
11205.79980 3.0346e-06
11215.90039 3.4274e-06
11226.00000 3.6584e-06
11236.09961 3.5462e-06
11246.20020 4.895e-06
11256.29980 4.7595e-06
11266.40039 4.6589e-06
11276.50000 5.6486e-06
11286.59961 4.9013e-06
11296.70020 5.8171e-06
11306.79980 7.3314e-06
11316.90039 6.8912e-06
11327.09961 7.4014e-06
11337.20020 8.357e-06
11347.29980 1.08305e-05
11357.40039 1.02387e-05
11367.50000 1.19713e-05
11377.59961 1.28296e-05
11387.70020 1.58085e-05
11397.79980 1.72441e-05
11407.90039 1.57494e-05
11418.00000 2.0688e-05
11428.09961 2.13532e-05
11438.29980 2.19356e-05
11448.40039 2.57253e-05
11458.50000 3.00113e-05
11468.59961 3.12001e-05
11478.70020 3.50845e-05
11488.79980 3.95006e-05
11498.90039 4.41159e-05
11509.00000 4.76647e-05
11519.09961 5.30901e-05
11529.20020 5.79916e-05
11539.29980 6.40264e-05
11549.40039 6.97275e-05
11559.59961 7.7764e-05
11569.70020 8.63609e-05
11579.79980 9.41951e-05
11589.90039 0.000103928
11600.00000 0.000113395
11610.09961 0.000123151
11620.20020 0.000136671
11630.29980 0.000150906
11640.40039 0.000164639
11650.50000 0.000179986
11660.59961 0.000198192
11670.79980 0.000215137
11680.90039 0.000236456
11691.00000 0.000258354
11701.09961 0.000283085
11711.20020 0.000308115
11721.29980 0.000337347
11731.40039 0.000369108
11741.50000 0.000401926
11751.59961 0.000438048
11761.70020 0.000478455
11771.79980 0.000523909
11782.00000 0.000574563
11792.09961 0.000624254
11802.20020 0.000680348
11812.29980 0.000743034
11822.40039 0.000810578
11832.50000 0.000896132
11842.59961 0.000983004
11852.70020 0.00104596
11862.79980 0.00119007
11872.90039 0.00129304
11883.00000 0.00140289
11893.09961 0.00153502
11903.29980 0.00168573
11913.40039 0.00186481
11923.50000 0.00202759
11933.59961 0.00223465
11943.70020 0.00246861
11953.79980 0.00269988
11963.90039 0.00294668
11974.00000 0.00325512
11984.09961 0.00360022
11994.20020 0.00396939
12004.29980 0.00432581
12014.50000 0.00479621
12024.59961 0.00526709
12034.70020 0.00580476
12044.79980 0.00640037
12054.90039 0.00705182
12065.00000 0.0077754
12075.09961 0.00852918
12085.20020 0.00940914
12095.29980 0.0103323
12105.40039 0.0113685
12115.50000 0.012558
12125.70020 0.013844
12135.79980 0.0152281
12145.90039 0.0166995
12156.00000 0.0183907
12166.09961 0.0201618
12176.20020 0.0222079
12186.29980 0.024474
12196.40039 0.0267818
12206.50000 0.0294677
12216.59961 0.0323385
12226.70020 0.0354391
12236.79980 0.0389189
12247.00000 0.0427208
12257.09961 0.0469344
12267.20020 0.0513697
12277.29980 0.0563643
12287.40039 0.0617327
12297.50000 0.0675557
12307.59961 0.0741561
12317.70020 0.0813589
12327.79980 0.0890111
12337.90039 0.0973934
12348.00000 0.106676
12358.20020 0.11641
12368.29980 0.12755
12378.40039 0.139927
12388.50000 0.152715
12398.59961 0.167344
12408.70020 0.182696
12418.79980 0.19953
12428.90039 0.217725
12439.00000 0.237959
12449.09961 0.260319
12459.20020 0.282449
12469.40039 0.308293
12479.50000 0.334561
12489.59961 0.362357
12499.70020 0.393134
12509.79980 0.425013
12519.90039 0.457711
12530.00000 0.491139
12540.09961 0.525719
12550.20020 0.558858
12560.29980 0.593367
12570.40039 0.627318
12580.50000 0.659053
12590.70020 0.688885
12600.79980 0.716071
12610.90039 0.741483
12621.00000 0.762847
12631.09961 0.782704
12641.20020 0.799392
12651.29980 0.812256
12661.40039 0.82336
12671.50000 0.831803
12681.59961 0.838399
12691.70020 0.843587
12701.90039 0.84742
12712.00000 0.850185
12722.09961 0.852294
12732.20020 0.854137
12742.29980 0.855838
12752.40039 0.857415
12762.50000 0.858983
12772.59961 0.860837
12782.70020 0.862824
12792.79980 0.865076
12802.90039 0.86762
12813.00000 0.870122
12823.20020 0.873174
12833.29980 0.876284
12843.40039 0.879138
12853.50000 0.882404
12863.59961 0.885377
12873.70020 0.888643
12883.79980 0.891539
12893.90039 0.894742
12904.00000 0.897784
12914.09961 0.900407
12924.20020 0.903114
12934.40039 0.905606
12944.50000 0.908189
12954.59961 0.910539
12964.70020 0.912931
12974.79980 0.914906
12984.90039 0.916693
12995.00000 0.918262
13005.09961 0.919591
13015.20020 0.920641
13025.29980 0.92149
13035.40039 0.921717
13045.59961 0.921428
13055.70020 0.920788
13065.79980 0.919569
13075.90039 0.917899
13086.00000 0.915664
13096.09961 0.912819
13106.20020 0.909667
13116.29980 0.905761
13126.40039 0.901522
13136.50000 0.897186
13146.59961 0.892306
13156.70020 0.887506
13166.90039 0.882673
13177.00000 0.877902
13187.09961 0.873271
13197.20020 0.869103
13207.29980 0.865213
13217.40039 0.861701
13227.50000 0.858914
13237.59961 0.856619
13247.70020 0.855004
13257.79980 0.853936
13267.90039 0.8535
13278.09961 0.853724
13288.20020 0.854675
13298.29980 0.856052
13308.40039 0.858112
13318.50000 0.860438
13328.59961 0.863172
13338.70020 0.86633
13348.79980 0.869743
13358.90039 0.873497
13369.00000 0.877076
13379.09961 0.880839
13389.29980 0.884463
13399.40039 0.88791
13409.50000 0.891446
13419.59961 0.894573
13429.70020 0.897542
13439.79980 0.90009
13449.90039 0.902589
13460.00000 0.904452
13470.09961 0.906456
13480.20020 0.908286
13490.29980 0.909977
13500.40039 0.911524
13510.59961 0.912943
13520.70020 0.914673
13530.79980 0.915988
13540.90039 0.917323
13551.00000 0.919108
13561.09961 0.920843
13571.20020 0.922613
13581.29980 0.924792
13591.40039 0.926898
13601.50000 0.929111
13611.59961 0.931576
13621.79980 0.933924
13631.90039 0.936299
13642.00000 0.938668
13652.09961 0.940608
13662.20020 0.942735
13672.29980 0.944692
13682.40039 0.946389
13692.50000 0.947867
13702.59961 0.948999
13712.70020 0.94993
13722.79980 0.95033
13733.00000 0.9506
13743.09961 0.950274
13753.20020 0.949927
13763.29980 0.949159
13773.40039 0.948552
13783.50000 0.947478
13793.59961 0.946132
13803.70020 0.944752
13813.79980 0.943427
13823.90039 0.942216
13834.00000 0.941016
13844.09961 0.940113
13854.29980 0.939214
13864.40039 0.93829
13874.50000 0.937576
13884.59961 0.937091
13894.70020 0.936645
13904.79980 0.936729
13914.90039 0.936961
13925.00000 0.937179
13935.09961 0.937404
13945.20020 0.937448
13955.29980 0.938074
13965.50000 0.938642
13975.59961 0.939174
13985.70020 0.939711
13995.79980 0.939817
14005.90039 0.940171
14016.00000 0.940182
14026.09961 0.94011
14036.20020 0.940209
14046.29980 0.93983
14056.40039 0.939725
14066.50000 0.939288
14076.59961 0.938896
14086.79980 0.938391
14096.90039 0.937961
14107.00000 0.937356
14117.09961 0.936968
14127.20020 0.936541
14137.29980 0.936406
14147.40039 0.936413
14157.50000 0.936548
14167.59961 0.93681
14177.70020 0.937125
14187.79980 0.937656
14198.00000 0.938411
14208.09961 0.93932
14218.20020 0.94027
14228.29980 0.941554
14238.40039 0.942872
14248.50000 0.944262
14258.59961 0.945476
14268.70020 0.946736
14278.79980 0.947761
14288.90039 0.949007
14299.00000 0.950295
14309.20020 0.951086
14319.29980 0.951952
14329.40039 0.952391
14339.50000 0.952467
14349.59961 0.952562
14359.70020 0.952589
14369.79980 0.952418
14379.90039 0.951967
14390.00000 0.951184
14400.09961 0.950229
14410.20020 0.94926
14420.29980 0.948179
14430.50000 0.947213
14440.59961 0.946298
14450.70020 0.945162
14460.79980 0.944049
14470.90039 0.943146
14481.00000 0.942192
14491.09961 0.941839
14501.20020 0.941458
14511.29980 0.941018
14521.40039 0.940859
14531.50000 0.941006
14541.70020 0.941378
14551.79980 0.942202
14561.90039 0.942677
14572.00000 0.943446
14582.09961 0.944557
14592.20020 0.945688
14602.29980 0.947099
14612.40039 0.948468
14622.50000 0.949744
14632.59961 0.951069
14642.70020 0.952473
14652.90039 0.953855
14663.00000 0.955254
14673.09961 0.95644
14683.20020 0.957291
14693.29980 0.958232
14703.40039 0.95915
14713.50000 0.959707
14723.59961 0.960539
14733.70020 0.960941
14743.79980 0.961111
14753.90039 0.961304
14764.00000 0.961593
14774.20020 0.96169
14784.29980 0.961697
14794.40039 0.96149
14804.50000 0.961356
14814.59961 0.961627
14824.70020 0.961598
14834.79980 0.961563
14844.90039 0.961432
14855.00000 0.961572
14865.09961 0.962085
14875.20020 0.962488
14885.40039 0.962747
14895.50000 0.963043
14905.59961 0.963552
14915.70020 0.964361
14925.79980 0.965148
14935.90039 0.965453
14946.00000 0.966152
14956.09961 0.966877
14966.20020 0.967558
14976.29980 0.968192
14986.40039 0.968377
14996.59961 0.96875
15006.70020 0.969437
15016.79980 0.96971
15026.90039 0.969432
15037.00000 0.969187
15047.09961 0.96911
15057.20020 0.969122
15067.29980 0.968654
15077.40039 0.967569
15087.50000 0.966703
15097.59961 0.966147
15107.70020 0.965258
15117.90039 0.963999
15128.00000 0.962793
15138.09961 0.962014
15148.20020 0.961067
15158.29980 0.959755
15168.40039 0.958368
15178.50000 0.957534
15188.59961 0.956833
15198.70020 0.955891
15208.79980 0.954764
15218.90039 0.954437
15229.09961 0.953985
15239.20020 0.953474
15249.29980 0.952835
15259.40039 0.952842
15269.50000 0.953392
15279.59961 0.95323
15289.70020 0.953023
15299.79980 0.953463
15309.90039 0.95403
15320.00000 0.9544
15330.09961 0.954618
15340.20020 0.955448
15350.40039 0.956132
15360.50000 0.956343
15370.59961 0.956681
15380.70020 0.95734
15390.79980 0.95796
15400.90039 0.958232
15411.00000 0.95866
15421.09961 0.959183
15431.20020 0.959415
15441.29980 0.959222
15451.40039 0.959302
15461.59961 0.959914
15471.70020 0.959816
15481.79980 0.959435
15491.90039 0.959397
15502.00000 0.959671
15512.09961 0.959156
15522.20020 0.9588
15532.29980 0.959057
15542.40039 0.959195
15552.50000 0.958791
15562.59961 0.9586
15572.79980 0.959121
15582.90039 0.959203
15593.00000 0.958796
15603.09961 0.95936
15613.20020 0.960121
15623.29980 0.960111
15633.40039 0.96031
15643.50000 0.961339
15653.59961 0.962052
15663.70020 0.962024
15673.79980 0.963026
15683.90039 0.964399
15694.09961 0.964578
15704.20020 0.964879
15714.29980 0.966319
15724.40039 0.966932
15734.50000 0.966789
15744.59961 0.967921
15754.70020 0.968862
15764.79980 0.968375
15774.90039 0.968556
15785.00000 0.969494
15795.09961 0.969111
15805.29980 0.96848
15815.40039 0.968907
15825.50000 0.968833
15835.59961 0.967419
15845.70020 0.967046
15855.79980 0.966695
15865.90039 0.96544
15876.00000 0.96459
15886.09961 0.964377
15896.20020 0.962888
15906.29980 0.961224
15916.50000 0.960963
15926.59961 0.959706
15936.70020 0.958056
15946.79980 0.957565
15956.90039 0.956916
15967.00000 0.955164
15977.09961 0.954723
15987.20020 0.954445
15997.29980 0.953069
16007.40039 0.952864
16017.50000 0.953205
16027.59961 0.95232
16037.79980 0.952374
16047.90039 0.953113
16058.00000 0.952645
16068.09961 0.953054
16078.20020 0.954332
16088.29980 0.954654
16098.40039 0.955122
16108.50000 0.956645
16118.59961 0.957135
16128.70020 0.957914
16138.79980 0.959744
16149.00000 0.960807
16159.09961 0.9613
16169.20020 0.963104
16179.29980 0.964072
16189.40039 0.964637
16199.50000 0.966219
16209.59961 0.967219
16219.70020 0.96752
16229.79980 0.968986
16239.90039 0.96958
16250.00000 0.969536
16260.20020 0.970539
16270.29980 0.9707
16280.40039 0.970517
16290.50000 0.971317
16300.59961 0.970781
16310.70020 0.970289
16320.79980 0.970479
16330.90039 0.969465
16341.00000 0.968669
16351.09961 0.968662
16361.20020 0.967396
16371.29980 0.966584
16381.50000 0.966098
16391.59961 0.964701
16401.69922 0.963891
16411.80078 0.96335
16421.90039 0.961919
16432.00000 0.961339
16442.09961 0.960794
16452.19922 0.959583
16462.30078 0.959063
16472.40039 0.958529
16482.50000 0.957754
16492.69922 0.957717
16502.80078 0.957409
16512.90039 0.956987
16523.00000 0.957227
16533.09961 0.957017
16543.19922 0.957157
16553.30078 0.957701
16563.40039 0.957716
16573.50000 0.958221
16583.59961 0.958977
16593.69922 0.95922
16603.80078 0.960164
16614.00000 0.960953
16624.09961 0.961444
16634.19922 0.962827
16644.30078 0.963343
16654.40039 0.964184
16664.50000 0.96536
16674.59961 0.965818
16684.69922 0.966809
16694.80078 0.967958
16704.90039 0.968562
16715.00000 0.969591
16725.19922 0.970274
16735.30078 0.97071
16745.40039 0.971379
16755.50000 0.971751
16765.59961 0.972266
16775.69922 0.972942
16785.80078 0.972887
16795.90039 0.973147
16806.00000 0.973473
16816.09961 0.973296
16826.19922 0.973649
16836.40039 0.973521
16846.50000 0.973454
16856.59961 0.973616
16866.69922 0.973075
16876.80078 0.973024
16886.90039 0.972984
16897.00000 0.972574
16907.09961 0.972715
16917.19922 0.972405
16927.30078 0.97217
16937.40039 0.972068
16947.50000 0.971816
16957.69922 0.971937
16967.80078 0.971743
16977.90039 0.971922
16988.00000 0.971844
16998.09961 0.971856
17008.19922 0.972061
17018.30078 0.972022
17028.40039 0.97241
17038.50000 0.972725
17048.59961 0.972846
17058.69922 0.973474
17068.90039 0.973613
17079.00000 0.973961
17089.09961 0.974716
17099.19922 0.974869
17109.30078 0.975747
17119.40039 0.976176
17129.50000 0.976338
17139.59961 0.977221
17149.69922 0.977512
17159.80078 0.978219
17169.90039 0.978797
17180.09961 0.979179
17190.19922 0.979642
17200.30078 0.979967
17210.40039 0.980331
17220.50000 0.980534
17230.59961 0.981045
17240.69922 0.981374
17250.80078 0.981514
17260.90039 0.981949
17271.00000 0.981647
17281.09961 0.981858
17291.19922 0.981887
17301.40039 0.981828
17311.50000 0.982206
17321.59961 0.981854
17331.69922 0.981734
17341.80078 0.981779
17351.90039 0.981379
17362.00000 0.981408
17372.09961 0.981115
17382.19922 0.981154
17392.30078 0.980819
17402.40039 0.980617
17412.59961 0.980395
17422.69922 0.980043
17432.80078 0.98018
17442.90039 0.979733
17453.00000 0.980096
17463.09961 0.97986
17473.19922 0.979563
17483.30078 0.979673
17493.40039 0.979259
17503.50000 0.97961
17513.59961 0.979601
17523.80078 0.979654
17533.90039 0.979539
17544.00000 0.979648
17554.09961 0.979763
17564.19922 0.979823
17574.30078 0.980165
17584.40039 0.980057
17594.50000 0.980399
17604.59961 0.980458
17614.69922 0.980348
17624.80078 0.980699
17634.90039 0.980441
17645.09961 0.980752
17655.19922 0.980873
17665.30078 0.980789
17675.40039 0.980795
17685.50000 0.980682
17695.59961 0.98053
17705.69922 0.980399
17715.80078 0.980536
17725.90039 0.980149
17736.00000 0.980145
17746.09961 0.97979
17756.30078 0.979307
17766.40039 0.979439
17776.50000 0.978841
17786.59961 0.978829
17796.69922 0.978306
17806.80078 0.97788
17816.90039 0.977475
17827.00000 0.976711
17837.09961 0.976359
17847.19922 0.976145
17857.30078 0.975867
17867.40039 0.97528
17877.59961 0.975128
17887.69922 0.974463
17897.80078 0.974114
17907.90039 0.973926
17918.00000 0.973678
17928.09961 0.97347
17938.19922 0.973403
17948.30078 0.973049
17958.40039 0.972784
17968.50000 0.972893
17978.59961 0.97276
17988.80078 0.97305
17998.90039 0.972984
18009.00000 0.973062
18019.09961 0.973172
18029.19922 0.973491
18039.30078 0.97359
18049.40039 0.973974
18059.50000 0.974284
18069.59961 0.974498
18079.69922 0.97503
18089.80078 0.974993
18100.00000 0.97546
18110.09961 0.975754
18120.19922 0.976241
18130.30078 0.976619
18140.40039 0.977024
18150.50000 0.977102
18160.59961 0.977505
18170.69922 0.977777
18180.80078 0.977978
18190.90039 0.97829
18201.00000 0.978354
18211.09961 0.978236
18221.30078 0.978507
18231.40039 0.978386
18241.50000 0.978266
18251.59961 0.978305
18261.69922 0.977998
18271.80078 0.978067
18281.90039 0.977844
18292.00000 0.977381
18302.09961 0.976988
18312.19922 0.97654
18322.30078 0.976111
18332.50000 0.976055
18342.59961 0.975402
18352.69922 0.974718
18362.80078 0.974328
18372.90039 0.973488
18383.00000 0.972928
18393.09961 0.972522
18403.19922 0.972014
18413.30078 0.971289
18423.40039 0.970883
18433.50000 0.970191
18443.69922 0.969701
18453.80078 0.969304
18463.90039 0.96887
18474.00000 0.968546
18484.09961 0.968237
18494.19922 0.967746
18504.30078 0.967599
18514.40039 0.967387
18524.50000 0.967131
18534.59961 0.967056
18544.69922 0.967032
18554.80078 0.966935
18565.00000 0.967135
18575.09961 0.966913
18585.19922 0.967068
18595.30078 0.967292
18605.40039 0.967409
18615.50000 0.967908
18625.59961 0.968168
18635.69922 0.968177
18645.80078 0.968668
18655.90039 0.968989
18666.00000 0.969266
18676.19922 0.969908
18686.30078 0.970312
18696.40039 0.970417
18706.50000 0.970795
18716.59961 0.970939
18726.69922 0.971196
18736.80078 0.971763
18746.90039 0.971903
18757.00000 0.972206
18767.09961 0.97237
18777.19922 0.97229
18787.40039 0.972566
18797.50000 0.972596
18807.59961 0.972653
18817.69922 0.972981
18827.80078 0.972759
18837.90039 0.972626
18848.00000 0.972607
18858.09961 0.972238
18868.19922 0.972168
18878.30078 0.9723
18888.40039 0.971897
18898.50000 0.971645
18908.69922 0.971209
18918.80078 0.970824
18928.90039 0.970529
18939.00000 0.970312
18949.09961 0.96997
18959.19922 0.969714
18969.30078 0.969231
18979.40039 0.968814
18989.50000 0.968536
18999.59961 0.96811
19009.69922 0.967749
19019.90039 0.967643
19030.00000 0.967341
19040.09961 0.966857
19050.19922 0.966674
19060.30078 0.966118
19070.40039 0.966051
19080.50000 0.966007
19090.59961 0.965897
19100.69922 0.965868
19110.80078 0.965751
19120.90039 0.965325
19131.00000 0.965574
19141.19922 0.96526
19151.30078 0.965424
19161.40039 0.965532
19171.50000 0.965419
19181.59961 0.965375
19191.69922 0.965615
19201.80078 0.965428
19211.90039 0.965751
19222.00000 0.965832
19232.09961 0.965958
19242.19922 0.966069
19252.40039 0.966101
19262.50000 0.966086
19272.59961 0.966398
19282.69922 0.966567
19292.80078 0.966503
19302.90039 0.966981
19313.00000 0.966798
19323.09961 0.966952
19333.19922 0.966927
19343.30078 0.967203
19353.40039 0.967184
19363.59961 0.967719
19373.69922 0.967325
19383.80078 0.967533
19393.90039 0.967534
19404.00000 0.967377
19414.09961 0.967673
19424.19922 0.967596
19434.30078 0.967739
19444.40039 0.967812
19454.50000 0.967779
19464.59961 0.96786
19474.69922 0.967846
19484.90039 0.967702
19495.00000 0.968072
19505.09961 0.968074
19515.19922 0.968153
19525.30078 0.967965
19535.40039 0.968313
19545.50000 0.968149
19555.59961 0.968492
19565.69922 0.968611
19575.80078 0.968602
19585.90039 0.968866
19596.09961 0.968817
19606.19922 0.969038
19616.30078 0.969068
19626.40039 0.969456
19636.50000 0.96932
19646.59961 0.96979
19656.69922 0.969712
19666.80078 0.969887
19676.90039 0.969984
19687.00000 0.970126
19697.09961 0.970372
19707.30078 0.970536
19717.40039 0.970613
19727.50000 0.970451
19737.59961 0.970647
19747.69922 0.970387
19757.80078 0.970634
19767.90039 0.970554
19778.00000 0.970529
19788.09961 0.970389
19798.19922 0.970149
19808.30078 0.969974
19818.40039 0.969781
19828.59961 0.969724
19838.69922 0.969235
19848.80078 0.969297
19858.90039 0.968723
19869.00000 0.968328
19879.09961 0.967856
19889.19922 0.967413
19899.30078 0.967121
19909.40039 0.966713
19919.50000 0.966178
19929.59961 0.965646
19939.80078 0.965146
19949.90039 0.964382
19960.00000 0.96417
19970.09961 0.963564
19980.19922 0.96297
19990.30078 0.962491
20000.40039 0.9621
20010.50000 0.961674
20020.59961 0.961041
20030.69922 0.960671
20040.80078 0.959992
20051.00000 0.95993
20061.09961 0.959548
20071.19922 0.959311
20081.30078 0.959176
20091.40039 0.958569
20101.50000 0.958447
20111.59961 0.958373
20121.69922 0.958423
20131.80078 0.958316
20141.90039 0.958393
20152.00000 0.958259
20162.09961 0.958395
20172.30078 0.958505
20182.40039 0.958571
20192.50000 0.958985
20202.59961 0.959177
20212.69922 0.959438
20222.80078 0.959793
20232.90039 0.959822
20243.00000 0.960267
20253.09961 0.960593
20263.19922 0.961059
20273.30078 0.961358
20283.50000 0.961843
20293.59961 0.961935
20303.69922 0.962202
20313.80078 0.962561
20323.90039 0.962582
20334.00000 0.963064
20344.09961 0.963051
20354.19922 0.963067
20364.30078 0.963196
20374.40039 0.963051
20384.50000 0.963083
20394.59961 0.962987
20404.80078 0.962842
20414.90039 0.962578
20425.00000 0.96246
20435.09961 0.961881
20445.19922 0.961339
20455.30078 0.960879
20465.40039 0.960126
20475.50000 0.959731
20485.59961 0.958926
20495.69922 0.958103
20505.80078 0.957237
20516.00000 0.956234
20526.09961 0.95539
20536.19922 0.95447
20546.30078 0.953548
20556.40039 0.95244
20566.50000 0.951373
20576.59961 0.950214
20586.69922 0.949068
20596.80078 0.948145
20606.90039 0.946833
20617.00000 0.945939
20627.19922 0.944746
20637.30078 0.943624
20647.40039 0.942624
20657.50000 0.941515
20667.59961 0.940546
20677.69922 0.939875
20687.80078 0.938965
20697.90039 0.938065
20708.00000 0.937238
20718.09961 0.936438
20728.19922 0.935763
20738.30078 0.935373
20748.50000 0.934818
20758.59961 0.934333
20768.69922 0.933995
20778.80078 0.933489
20788.90039 0.933336
20799.00000 0.933211
20809.09961 0.933077
20819.19922 0.933182
20829.30078 0.933166
20839.40039 0.933203
20849.50000 0.933283
20859.69922 0.933444
20869.80078 0.933695
20879.90039 0.934049
20890.00000 0.934371
20900.09961 0.934661
20910.19922 0.935019
20920.30078 0.935198
20930.40039 0.935703
20940.50000 0.936211
20950.59961 0.936358
20960.69922 0.936785
20970.90039 0.937025
20981.00000 0.93709
20991.09961 0.937428
21001.19922 0.937554
21011.30078 0.937732
21021.40039 0.938016
21031.50000 0.937808
21041.59961 0.937858
21051.69922 0.937747
21061.80078 0.937488
21071.90039 0.937506
21082.00000 0.937282
21092.19922 0.936963
21102.30078 0.936716
21112.40039 0.936216
21122.50000 0.935702
21132.59961 0.93536
21142.69922 0.934941
21152.80078 0.934417
21162.90039 0.93393
21173.00000 0.933376
21183.09961 0.932748
21193.19922 0.932229
21203.40039 0.931576
21213.50000 0.930992
21223.59961 0.930531
21233.69922 0.92977
21243.80078 0.929251
21253.90039 0.928645
21264.00000 0.927945
21274.09961 0.92748
21284.19922 0.926875
21294.30078 0.926411
21304.40039 0.925995
21314.59961 0.925469
21324.69922 0.924884
21334.80078 0.924575
21344.90039 0.924201
21355.00000 0.923967
21365.09961 0.923867
21375.19922 0.923495
21385.30078 0.92335
21395.40039 0.923295
21405.50000 0.923189
21415.59961 0.923272
21425.69922 0.923383
21435.90039 0.923445
21446.00000 0.923622
21456.09961 0.92383
21466.19922 0.923993
21476.30078 0.924395
21486.40039 0.924621
21496.50000 0.925067
21506.59961 0.925559
21516.69922 0.925882
21526.80078 0.926222
21536.90039 0.926645
21547.09961 0.927144
21557.19922 0.927793
21567.30078 0.928344
21577.40039 0.928584
21587.50000 0.929138
21597.59961 0.929487
21607.69922 0.929986
21617.80078 0.930529
21627.90039 0.930902
21638.00000 0.93123
21648.09961 0.931528
21658.19922 0.931631
21668.40039 0.931931
21678.50000 0.932143
21688.59961 0.932189
21698.69922 0.932357
21708.80078 0.932319
21718.90039 0.932217
21729.00000 0.932194
21739.09961 0.931841
21749.19922 0.931496
21759.30078 0.931377
21769.40039 0.931086
21779.59961 0.930636
21789.69922 0.930219
21799.80078 0.929568
21809.90039 0.928855
21820.00000 0.928569
21830.09961 0.927868
21840.19922 0.927137
21850.30078 0.926659
21860.40039 0.925765
21870.50000 0.925032
21880.59961 0.924548
21890.80078 0.923553
21900.90039 0.9231
21911.00000 0.922346
21921.09961 0.921461
21931.19922 0.921015
21941.30078 0.920183
21951.40039 0.919472
21961.50000 0.919053
21971.59961 0.918219
21981.69922 0.91779
21991.80078 0.917269
22001.90039 0.916352
22012.09961 0.916007
22022.19922 0.915595
22032.30078 0.91494
22042.40039 0.914835
22052.50000 0.914317
22062.59961 0.913777
22072.69922 0.913694
22082.80078 0.913101
22092.90039 0.912894
22103.00000 0.912767
22113.09961 0.912291
22123.30078 0.912206
22133.40039 0.911969
22143.50000 0.911596
22153.59961 0.911603
22163.69922 0.911383
22173.80078 0.91115
22183.90039 0.911167
22194.00000 0.910932
22204.09961 0.910708
22214.19922 0.910588
22224.30078 0.910376
22234.50000 0.910328
22244.59961 0.910302
22254.69922 0.910047
22264.80078 0.909894
22274.90039 0.909793
22285.00000 0.909477
22295.09961 0.909446
22305.19922 0.909434
22315.30078 0.909151
22325.40039 0.909078
22335.50000 0.908971
22345.59961 0.908697
22355.80078 0.908712
22365.90039 0.908544
22376.00000 0.908414
22386.09961 0.908497
22396.19922 0.908366
22406.30078 0.908269
22416.40039 0.908308
22426.50000 0.908181
22436.59961 0.908349
22446.69922 0.90851
22456.80078 0.908449
22467.00000 0.908646
22477.09961 0.908736
22487.19922 0.908794
22497.30078 0.909006
22507.40039 0.909248
22517.50000 0.90955
22527.59961 0.909921
22537.69922 0.910124
22547.80078 0.910341
22557.90039 0.910756
22568.00000 0.911053
22578.19922 0.911409
22588.30078 0.91179
22598.40039 0.912091
22608.50000 0.912457
22618.59961 0.912672
22628.69922 0.912877
22638.80078 0.913301
22648.90039 0.91347
22659.00000 0.913723
22669.09961 0.914009
22679.19922 0.913951
22689.30078 0.914032
22699.50000 0.91417
22709.59961 0.913999
22719.69922 0.914065
22729.80078 0.914089
22739.90039 0.913664
22750.00000 0.913522
22760.09961 0.913199
22770.19922 0.912724
22780.30078 0.912593
22790.40039 0.912173
22800.50000 0.911606
22810.69922 0.911236
22820.80078 0.910616
22830.90039 0.909931
22841.00000 0.90951
22851.09961 0.909029
22861.19922 0.908422
22871.30078 0.90797
22881.40039 0.907368
22891.50000 0.90679
22901.59961 0.906417
22911.69922 0.905996
22921.80078 0.905613
22932.00000 0.905485
22942.09961 0.905153
22952.19922 0.904926
22962.30078 0.905008
22972.40039 0.904844
22982.50000 0.905005
22992.59961 0.905445
23002.69922 0.905499
23012.80078 0.90581
23022.90039 0.906439
23033.00000 0.906498
23043.19922 0.907125
23053.30078 0.908128
23063.40039 0.908425
23073.50000 0.909275
23083.59961 0.910264
23093.69922 0.910499
23103.80078 0.911239
23113.90039 0.912355
23124.00000 0.912611
23134.09961 0.913203
23144.19922 0.914025
23154.40039 0.913864
23164.50000 0.91387
23174.59961 0.914024
23184.69922 0.913199
23194.80078 0.91246
23204.90039 0.911622
23215.00000 0.909507
23225.09961 0.907122
23235.19922 0.904328
23245.30078 0.900023
23255.40039 0.895014
23265.50000 0.889252
23275.69922 0.881573
23285.80078 0.872337
23295.90039 0.862121
23306.00000 0.848497
23316.09961 0.832516
23326.19922 0.815643
23336.30078 0.794157
23346.40039 0.77127
23356.50000 0.745124
23366.59961 0.715496
23376.69922 0.682582
23386.90039 0.646965
23397.00000 0.610673
23407.09961 0.570766
23417.19922 0.531527
23427.30078 0.490678
23437.40039 0.44894
23447.50000 0.408161
23457.59961 0.369275
23467.69922 0.332312
23477.80078 0.297175
23487.90039 0.265568
23498.09961 0.234942
23508.19922 0.207008
23518.30078 0.182073
23528.40039 0.159649
23538.50000 0.140359
23548.59961 0.122723
23558.69922 0.107686
23568.80078 0.0937882
23578.90039 0.0816644
23589.00000 0.0715018
23599.09961 0.0621991
23609.19922 0.0545878
23619.40039 0.0477879
23629.50000 0.0417011
23639.59961 0.0364845
23649.69922 0.0319428
23659.80078 0.0280283
23669.90039 0.024611
23680.00000 0.021663
23690.09961 0.0191202
23700.19922 0.0167904
23710.30078 0.014805
23720.40039 0.0130922
23730.59961 0.0115793
23740.69922 0.0102953
23750.80078 0.00914806
23760.90039 0.00810138
23771.00000 0.00717968
23781.09961 0.00638677
23791.19922 0.00568824
23801.30078 0.00509404
23811.40039 0.00455609
23821.50000 0.00408143
23831.59961 0.00364603
23841.80078 0.00325344
23851.90039 0.00293299
23862.00000 0.00264822
23872.09961 0.00236781
23882.19922 0.00214346
23892.30078 0.0019204
23902.40039 0.00173627
23912.50000 0.00157427
23922.59961 0.00140508
23932.69922 0.00127769
23942.80078 0.00115159
23952.90039 0.00105039
23963.09961 0.000993453
23973.19922 0.000901802
23983.30078 0.000819517
23993.40039 0.000752364
24003.50000 0.000684644
24013.59961 0.00062431
24023.69922 0.00057169
24033.80078 0.000525674
24043.90039 0.000472826
24054.00000 0.000440852
24064.09961 0.000404415
24074.30078 0.000365663
24084.40039 0.000339299
24094.50000 0.000305743
24104.59961 0.00028855
24114.69922 0.000261146
24124.80078 0.0002429
24134.90039 0.000228204
24145.00000 0.000206947
24155.09961 0.000193492
24165.19922 0.000181606
24175.30078 0.000165723
24185.40039 0.00014969
24195.59961 0.000141306
24205.69922 0.000128722
24215.80078 0.000121865
24225.90039 0.000113288
24236.00000 0.000105953
24246.09961 9.85099e-05
24256.19922 9.32092e-05
24266.30078 8.60235e-05
24276.40039 7.98285e-05
24286.50000 7.7219e-05
24296.59961 6.98883e-05
24306.80078 6.9893e-05
24316.90039 6.42018e-05
24327.00000 6.31362e-05
24337.09961 5.44578e-05
24347.19922 5.42794e-05
24357.30078 4.84796e-05
24367.40039 4.33772e-05
24377.50000 4.1906e-05
24387.59961 3.89883e-05
24397.69922 3.56813e-05
24407.80078 3.50983e-05
24418.00000 3.76911e-05
24428.09961 2.98128e-05
24438.19922 2.40231e-05
24448.30078 2.26601e-05
24458.40039 2.69581e-05
24468.50000 2.45461e-05
24478.59961 3.07814e-05
24488.69922 2.02781e-05
24498.80078 1.47253e-05
24508.90039 1.96337e-05
24519.00000 1.30207e-05
24529.09961 1.40017e-05
24539.30078 1.80301e-05
24549.40039 1.45044e-05
24559.50000 1.34793e-05
24569.59961 1.6441e-05
24579.69922 8.3615e-06
24589.80078 1.05109e-05
24599.90039 1.07366e-05
24610.00000 2.2181e-06
24620.09961 1.31102e-05
24630.19922 1.2206e-05
24640.30078 1.45347e-05
24650.50000 1.01928e-05
24660.59961 3.7225e-06
24670.69922 1.40046e-05
24680.80078 4.1071e-06
24690.90039 1.2827e-05
24701.00000 1.49062e-05
24711.09961 4.1723e-06
24721.19922 1.04681e-05
24731.30078 6.841e-07
24741.40039 5.9554e-06
24751.50000 6.0317e-06
24761.69922 9.2064e-06
24771.80078 8.0233e-06
24781.90039 5.3527e-06
24792.00000 6.278e-06
24802.09961 1e-10
24812.19922 2.8956e-06
24822.30078 2.0973e-06
24832.40039 3.1942e-06
24842.50000 9.0637e-06
24852.59961 3.9224e-06
24862.69922 7.3712e-06
24872.80078 1.00865e-05
24883.00000 7.8497e-06
24893.09961 4.726e-06
24903.19922 9.535e-07
24913.30078 1.9357e-06
24923.40039 7.1147e-06
24933.50000 1e-10
24943.59961 1.00677e-05
24953.69922 1e-10
24963.80078 6.781e-06
24973.90039 1.1311e-06
24984.00000 3.9898e-06
24994.19922 5.495e-06
25004.30078 3.5843e-06
25014.40039 1e-10
25024.50000 2.644e-07
25034.59961 1e-10
25044.69922 4.0374e-06
25054.80078 5.3238e-06
25064.90039 5.2912e-06
25075.00000 4.6184e-06
25085.09961 2.4027e-06
25095.19922 1.864e-06
25105.40039 1e-10
25115.50000 8.1855e-06
25125.59961 9.297e-06
25135.69922 7.2564e-06
25145.80078 4.1044e-06
25155.90039 2.3468e-06
25166.00000 1e-10
25176.09961 2.012e-06
25186.19922 6.3435e-06
25196.30078 1e-10
25206.40039 1.65e-08
25216.50000 1.24985e-05
25226.69922 1.5728e-06
25236.80078 1.42119e-05
25246.90039 1.1138e-06
25257.00000 1e-10
25267.09961 1e-10
25277.19922 1e-10
25287.30078 2.2599e-06
25297.40039 1e-10
25307.50000 6.1388e-06
25317.59961 9.4718e-06
25327.69922 5.2071e-06
25337.90039 5.5642e-06
25348.00000 2.6099e-06
25358.09961 1e-10
25368.19922 9.4074e-06
25378.30078 4.7857e-06
25388.40039 3.9594e-06
25398.50000 1e-10
25408.59961 1e-10
25418.69922 1e-10
25428.80078 3.5987e-06
25438.90039 8.21e-07
25449.00000 3.635e-07
25459.19922 1.32381e-05
25469.30078 3.0913e-06
25479.40039 7.1703e-06
25489.50000 1e-10
25499.59961 4.8724e-06
25509.69922 8.8402e-06
25519.80078 3.8926e-06
25529.90039 1e-10
25540.00000 5.9821e-06
25550.09961 7.54e-07
25560.19922 1.12318e-05
25570.40039 1.2879e-06
25580.50000 3.7789e-06
25590.59961 9.9397e-06
25600.69922 1e-10
25610.80078 6.5433e-06
25620.90039 3.2262e-06
25631.00000 1.21903e-05
25641.09961 2.4467e-06
25651.19922 2.3004e-06
25661.30078 6.0453e-06
25671.40039 1.0777e-06
25681.59961 1e-10
25691.69922 1e-10
25701.80078 1.1344e-05
25711.90039 2.2583e-06
25722.00000 1e-10
25732.09961 1e-10
25742.19922 1e-10
25752.30078 1e-10
25762.40039 9.7969e-06
25772.50000 1.35809e-05
25782.59961 4.3496e-06
25792.69922 1e-10
25802.90039 1.993e-06
25813.00000 3.988e-06
25823.09961 1e-10
25833.19922 1e-10
25843.30078 3.7943e-06
25853.40039 1e-10
25863.50000 1e-10
25873.59961 1e-10
25883.69922 1e-10
25893.80078 1.35851e-05
25903.90039 1.47089e-05
25914.09961 9.2231e-06
25924.19922 8.2613e-06
25934.30078 8.685e-07
25944.40039 6.9484e-06
25954.50000 1.72032e-05
25964.59961 5.3246e-06
25974.69922 1e-10
25984.80078 4.3738e-06
25994.90039 1e-10
26005.00000 1.3186e-06
26015.09961 1.4493e-06
26025.30078 1.57748e-05
26035.40039 1e-10
26045.50000 1e-10
26055.59961 4.6703e-06
26065.69922 2.3246e-06
26075.80078 1e-10
26085.90039 5.943e-06
26096.00000 6.8394e-06
26106.09961 1.03366e-05
26116.19922 1e-10
26126.30078 1e-10
26136.40039 1e-10
26146.59961 1.43925e-05
26156.69922 5.2729e-06
26166.80078 1e-10
26176.90039 1.1259e-06
26187.00000 1.56618e-05
26197.09961 5.3208e-06
26207.19922 9.4457e-06
26217.30078 1e-10
26227.40039 1e-10
26237.50000 1e-10
26247.59961 1e-10
26257.80078 1e-10
26267.90039 1e-10
26278.00000 9.567e-06
26288.09961 2.6762e-06
26298.19922 8.9204e-06
26308.30078 4.0186e-06
26318.40039 1e-10
26328.50000 1e-10
26338.59961 1.53265e-05
26348.69922 1e-10
26358.80078 2.7562e-06
26369.00000 1e-10
26379.09961 1e-10
26389.19922 7.613e-06
26399.30078 1.03826e-05
26409.40039 1e-10
26419.50000 1e-10
26429.59961 1e-10
26439.69922 1.66754e-05
26449.80078 1.29163e-05
26459.90039 1e-10
26470.00000 1e-10
26480.09961 1e-10
26490.30078 1e-10
26500.40039 9.0613e-06
26510.50000 5.2336e-06
26520.59961 1e-10
26530.69922 1.00676e-05
26540.80078 1e-10
26550.90039 1e-10
26561.00000 1.29749e-05
26571.09961 1e-10
26581.19922 1e-10
26591.30078 1e-10
26601.50000 1e-10
26611.59961 7.7111e-06
26621.69922 1e-10
26631.80078 1e-10
26641.90039 1e-10
26652.00000 3.12382e-05
26662.09961 2.09111e-05
26672.19922 1.07898e-05
26682.30078 1e-10
26692.40039 6.6912e-06
26702.50000 1.16281e-05
29372.75000 0.0
