# %ECSV 0.9
# ---
# datatype:
# - {name: wavelength, unit: Angstrom, datatype: float32}
# - {name: response, datatype: float32}
# meta: !!omap
# - {band_name: Bes_R}
# - {group_name: ALFOSC}
wavelength response
4986.00000 0.0
5540.00000 0.004786
5545.00000 0.005963
5550.00000 0.007466
5555.00000 0.009289
5560.00000 0.01173
5565.00000 0.01455
5570.00000 0.01789
5575.00000 0.022
5580.00000 0.02677
5585.00000 0.03249
5590.00000 0.03936
5595.00000 0.04723
5600.00000 0.05625
5605.00000 0.06645
5610.00000 0.07816
5615.00000 0.09124
5620.00000 0.1058
5625.00000 0.1215
5630.00000 0.1387
5635.00000 0.1569
5640.00000 0.1767
5645.00000 0.197
5650.00000 0.2185
5655.00000 0.241
5660.00000 0.2637
5665.00000 0.2873
5670.00000 0.3114
5675.00000 0.3347
5680.00000 0.3591
5685.00000 0.383
5690.00000 0.4064
5695.00000 0.4283
5700.00000 0.4505
5705.00000 0.4722
5710.00000 0.4938
5715.00000 0.5139
5720.00000 0.5332
5725.00000 0.5525
5730.00000 0.5701
5735.00000 0.5867
5740.00000 0.6028
5745.00000 0.6183
5750.00000 0.6331
5755.00000 0.6463
5760.00000 0.6592
5765.00000 0.6717
5770.00000 0.6829
5775.00000 0.6932
5780.00000 0.7035
5785.00000 0.7127
5790.00000 0.7209
5795.00000 0.7287
5800.00000 0.7361
5805.00000 0.743
5810.00000 0.7499
5815.00000 0.7553
5820.00000 0.7612
5825.00000 0.7657
5830.00000 0.7701
5835.00000 0.7748
5840.00000 0.7792
5845.00000 0.7821
5850.00000 0.785
5855.00000 0.7884
5860.00000 0.7916
5865.00000 0.7934
5870.00000 0.7954
5875.00000 0.7975
5880.00000 0.7989
5885.00000 0.8004
5890.00000 0.8025
5895.00000 0.8037
5900.00000 0.8042
5905.00000 0.8053
5910.00000 0.806
5915.00000 0.8071
5920.00000 0.807
5925.00000 0.8076
5930.00000 0.8078
5935.00000 0.8081
5940.00000 0.808
5945.00000 0.8078
5950.00000 0.8079
5955.00000 0.8074
5960.00000 0.8071
5965.00000 0.807
5970.00000 0.8062
5975.00000 0.8064
5980.00000 0.8056
5985.00000 0.8049
5990.00000 0.8042
5995.00000 0.8033
6000.00000 0.8025
6005.00000 0.802
6010.00000 0.8011
6015.00000 0.7998
6020.00000 0.7994
6025.00000 0.7979
6030.00000 0.7969
6035.00000 0.7961
6040.00000 0.7952
6045.00000 0.7942
6050.00000 0.793
6055.00000 0.7918
6060.00000 0.7905
6065.00000 0.7894
6070.00000 0.7882
6075.00000 0.7871
6080.00000 0.7855
6085.00000 0.7839
6090.00000 0.7833
6095.00000 0.7825
6100.00000 0.7803
6105.00000 0.7786
6110.00000 0.7775
6115.00000 0.7764
6120.00000 0.775
6125.00000 0.7732
6130.00000 0.7719
6135.00000 0.7704
6140.00000 0.7687
6145.00000 0.7672
6150.00000 0.7655
6155.00000 0.7642
6160.00000 0.7624
6165.00000 0.7607
6170.00000 0.7591
6175.00000 0.7574
6180.00000 0.7551
6185.00000 0.7535
6190.00000 0.7515
6195.00000 0.7501
6200.00000 0.7483
6205.00000 0.7462
6210.00000 0.7448
6215.00000 0.7433
6220.00000 0.7413
6225.00000 0.7396
6230.00000 0.7378
6235.00000 0.7357
6240.00000 0.7336
6245.00000 0.7319
6250.00000 0.7297
6255.00000 0.7278
6260.00000 0.7256
6265.00000 0.7239
6270.00000 0.7223
6275.00000 0.7201
6280.00000 0.7187
6285.00000 0.716
6290.00000 0.7136
6295.00000 0.7115
6300.00000 0.7092
6305.00000 0.7073
6310.00000 0.7056
6315.00000 0.7032
6320.00000 0.7008
6325.00000 0.6988
6330.00000 0.6967
6335.00000 0.6946
6340.00000 0.6925
6345.00000 0.6904
6350.00000 0.6882
6355.00000 0.686
6360.00000 0.684
6365.00000 0.6817
6370.00000 0.6795
6375.00000 0.6772
6380.00000 0.6752
6385.00000 0.6733
6390.00000 0.6707
6395.00000 0.6685
6400.00000 0.6663
6405.00000 0.6644
6410.00000 0.6622
6415.00000 0.6598
6420.00000 0.6568
6425.00000 0.6546
6430.00000 0.6522
6435.00000 0.6502
6440.00000 0.6479
6445.00000 0.6458
6450.00000 0.6433
6455.00000 0.6409
6460.00000 0.6387
6465.00000 0.6364
6470.00000 0.634
6475.00000 0.6313
6480.00000 0.6288
6485.00000 0.6266
6490.00000 0.6244
6495.00000 0.6219
6500.00000 0.6195
6505.00000 0.6171
6510.00000 0.6147
6515.00000 0.6121
6520.00000 0.6097
6525.00000 0.6073
6530.00000 0.6049
6535.00000 0.6023
6540.00000 0.6002
6545.00000 0.5977
6550.00000 0.5954
6555.00000 0.5929
6560.00000 0.5904
6565.00000 0.5881
6570.00000 0.5852
6575.00000 0.5828
6580.00000 0.5808
6585.00000 0.5779
6590.00000 0.5752
6595.00000 0.5733
6600.00000 0.5713
6605.00000 0.5684
6610.00000 0.5661
6615.00000 0.5637
6620.00000 0.5613
6625.00000 0.5584
6630.00000 0.5557
6635.00000 0.5538
6640.00000 0.5515
6645.00000 0.5489
6650.00000 0.5466
6655.00000 0.5442
6660.00000 0.5416
6665.00000 0.5389
6670.00000 0.5364
6675.00000 0.5343
6680.00000 0.5319
6685.00000 0.529
6690.00000 0.5266
6695.00000 0.5242
6700.00000 0.5217
6705.00000 0.5189
6710.00000 0.5166
6715.00000 0.5145
6720.00000 0.5117
6725.00000 0.5094
6730.00000 0.5068
6735.00000 0.5041
6740.00000 0.5013
6745.00000 0.4985
6750.00000 0.496
6755.00000 0.4932
6760.00000 0.4907
6765.00000 0.4879
6770.00000 0.4854
6775.00000 0.4825
6780.00000 0.4801
6785.00000 0.4774
6790.00000 0.4746
6795.00000 0.4718
6800.00000 0.4695
6805.00000 0.4666
6810.00000 0.4639
6815.00000 0.4612
6820.00000 0.4588
6825.00000 0.4559
6830.00000 0.4529
6835.00000 0.4501
6840.00000 0.4472
6845.00000 0.4444
6850.00000 0.442
6855.00000 0.4393
6860.00000 0.4368
6865.00000 0.4338
6870.00000 0.4313
6875.00000 0.4285
6880.00000 0.426
6885.00000 0.4234
6890.00000 0.4206
6895.00000 0.4178
6900.00000 0.415
6905.00000 0.4122
6910.00000 0.4099
6915.00000 0.4073
6920.00000 0.4042
6925.00000 0.4017
6930.00000 0.3988
6935.00000 0.3961
6940.00000 0.3936
6945.00000 0.3909
6950.00000 0.3885
6955.00000 0.3858
6960.00000 0.3833
6965.00000 0.3803
6970.00000 0.3775
6975.00000 0.3748
6980.00000 0.3724
6985.00000 0.3698
6990.00000 0.3672
6995.00000 0.3644
7000.00000 0.362
7005.00000 0.3592
7010.00000 0.3568
7015.00000 0.354
7020.00000 0.3514
7025.00000 0.349
7030.00000 0.3462
7035.00000 0.344
7040.00000 0.3416
7045.00000 0.3391
7050.00000 0.3363
7055.00000 0.3339
7060.00000 0.3311
7065.00000 0.3287
7070.00000 0.3264
7075.00000 0.3237
7080.00000 0.3214
7085.00000 0.319
7090.00000 0.3164
7095.00000 0.3143
7100.00000 0.3117
7105.00000 0.3093
7110.00000 0.3069
7115.00000 0.3045
7120.00000 0.302
7125.00000 0.2996
7130.00000 0.2973
7135.00000 0.2949
7140.00000 0.2923
7145.00000 0.2904
7150.00000 0.2881
7155.00000 0.2857
7160.00000 0.2831
7165.00000 0.2809
7170.00000 0.2787
7175.00000 0.2765
7180.00000 0.2743
7185.00000 0.2718
7190.00000 0.2698
7195.00000 0.2674
7200.00000 0.2653
7205.00000 0.2629
7210.00000 0.2609
7215.00000 0.2585
7220.00000 0.2563
7225.00000 0.2543
7230.00000 0.2522
7235.00000 0.2499
7240.00000 0.2478
7245.00000 0.2457
7250.00000 0.2435
7255.00000 0.2415
7260.00000 0.2394
7265.00000 0.2372
7270.00000 0.2351
7275.00000 0.2332
7280.00000 0.2311
7285.00000 0.2292
7290.00000 0.227
7295.00000 0.225
7300.00000 0.223
7305.00000 0.2211
7310.00000 0.219
7315.00000 0.2171
7320.00000 0.2147
7325.00000 0.213
7330.00000 0.2112
7335.00000 0.209
7340.00000 0.2073
7345.00000 0.2053
7350.00000 0.2035
7355.00000 0.2014
7360.00000 0.1997
7365.00000 0.1978
7370.00000 0.1959
7375.00000 0.1938
7380.00000 0.192
7385.00000 0.1903
7390.00000 0.1885
7395.00000 0.1865
7400.00000 0.1847
7405.00000 0.1829
7410.00000 0.1812
7415.00000 0.1795
7420.00000 0.1776
7425.00000 0.1759
7430.00000 0.1741
7435.00000 0.1723
7440.00000 0.1706
7445.00000 0.1688
7450.00000 0.167
7455.00000 0.1654
7460.00000 0.1638
7465.00000 0.1621
7470.00000 0.1604
7475.00000 0.1587
7480.00000 0.1571
7485.00000 0.1555
7490.00000 0.1537
7495.00000 0.1523
7500.00000 0.1504
7505.00000 0.149
7510.00000 0.1474
7515.00000 0.1459
7520.00000 0.1444
7525.00000 0.1427
7530.00000 0.1411
7535.00000 0.1395
7540.00000 0.1381
7545.00000 0.1365
7550.00000 0.1351
7555.00000 0.1337
7560.00000 0.1322
7565.00000 0.1307
7570.00000 0.1292
7575.00000 0.1277
7580.00000 0.1262
7585.00000 0.1248
7590.00000 0.1235
7595.00000 0.122
7600.00000 0.1207
7605.00000 0.1195
7610.00000 0.1179
7615.00000 0.1165
7620.00000 0.1152
7625.00000 0.1138
7630.00000 0.1124
7635.00000 0.1111
7640.00000 0.1099
7645.00000 0.1084
7650.00000 0.1073
7655.00000 0.1061
7660.00000 0.1049
7665.00000 0.1035
7670.00000 0.1023
7675.00000 0.1011
7680.00000 0.09981
7685.00000 0.09853
7690.00000 0.0975
7695.00000 0.09634
7700.00000 0.09513
7705.00000 0.09378
7710.00000 0.09273
7715.00000 0.09163
7720.00000 0.09044
7725.00000 0.08921
7730.00000 0.08837
7735.00000 0.08706
7740.00000 0.08591
7745.00000 0.08503
7750.00000 0.08399
7755.00000 0.08289
7760.00000 0.08173
7765.00000 0.08081
7770.00000 0.07985
7775.00000 0.0787
7780.00000 0.07785
7785.00000 0.07666
7790.00000 0.07567
7795.00000 0.0749
7800.00000 0.07377
7805.00000 0.07279
7810.00000 0.07194
7815.00000 0.07091
7820.00000 0.07003
7825.00000 0.06913
7830.00000 0.0681
7835.00000 0.06738
7840.00000 0.06624
7845.00000 0.06565
7850.00000 0.0646
7855.00000 0.0638
7860.00000 0.06293
7865.00000 0.06211
7870.00000 0.06129
7875.00000 0.06048
7880.00000 0.05955
7885.00000 0.05878
7890.00000 0.05791
7895.00000 0.05712
7900.00000 0.0565
7905.00000 0.05575
7910.00000 0.05485
7915.00000 0.05421
7920.00000 0.05336
7925.00000 0.05267
7930.00000 0.05204
7935.00000 0.05121
7940.00000 0.05052
7945.00000 0.04982
7950.00000 0.0489
7955.00000 0.04854
7960.00000 0.04776
7965.00000 0.0471
7970.00000 0.04634
7975.00000 0.04582
7980.00000 0.04506
7985.00000 0.04453
7990.00000 0.04383
7995.00000 0.04311
8000.00000 0.04272
8005.00000 0.04188
8010.00000 0.04137
8015.00000 0.0408
8020.00000 0.04011
8025.00000 0.03962
8030.00000 0.03893
8035.00000 0.03842
8040.00000 0.03795
8045.00000 0.03738
8050.00000 0.03682
8055.00000 0.03622
8060.00000 0.03575
8065.00000 0.03519
8070.00000 0.03467
8075.00000 0.03411
8080.00000 0.03361
8085.00000 0.03312
8090.00000 0.03265
8095.00000 0.03217
8100.00000 0.0317
8105.00000 0.03128
8110.00000 0.03074
8115.00000 0.03029
8120.00000 0.02987
8125.00000 0.02947
8130.00000 0.02889
8135.00000 0.02849
8140.00000 0.02806
8145.00000 0.02763
8150.00000 0.02727
8155.00000 0.02685
8160.00000 0.02639
8165.00000 0.02596
8170.00000 0.02574
8175.00000 0.02516
8180.00000 0.02481
8185.00000 0.02452
8190.00000 0.02404
8195.00000 0.02363
8200.00000 0.02337
8205.00000 0.02293
8210.00000 0.02266
8215.00000 0.02224
8220.00000 0.02192
8225.00000 0.02152
8230.00000 0.02116
8235.00000 0.02093
8240.00000 0.02056
8245.00000 0.02028
8250.00000 0.01992
8255.00000 0.0196
8260.00000 0.01933
8265.00000 0.01907
8270.00000 0.01868
8275.00000 0.01823
8280.00000 0.01803
8285.00000 0.01779
8290.00000 0.01754
8295.00000 0.01721
8300.00000 0.017
8305.00000 0.01676
8310.00000 0.01645
8315.00000 0.01611
8320.00000 0.01594
8325.00000 0.01564
8330.00000 0.01532
8335.00000 0.01513
8340.00000 0.01482
8345.00000 0.01464
8350.00000 0.01442
8355.00000 0.01422
8360.00000 0.01391
8365.00000 0.01374
8370.00000 0.01343
8375.00000 0.0132
8380.00000 0.0131
8385.00000 0.01279
8390.00000 0.01259
8395.00000 0.01241
8400.00000 0.01225
8405.00000 0.01199
8410.00000 0.01183
8415.00000 0.01158
8420.00000 0.01136
8425.00000 0.01126
8430.00000 0.01107
8435.00000 0.01079
8440.00000 0.01069
8445.00000 0.01049
8450.00000 0.01026
8455.00000 0.01021
8460.00000 0.009963
8465.00000 0.009946
8470.00000 0.009777
8475.00000 0.009657
8480.00000 0.009502
8485.00000 0.00932
8490.00000 0.009011
8495.00000 0.009077
8500.00000 0.008863
8505.00000 0.008646
8510.00000 0.008543
8515.00000 0.008313
8520.00000 0.008213
8525.00000 0.007974
8530.00000 0.007948
8535.00000 0.007887
8540.00000 0.007679
8545.00000 0.007544
8550.00000 0.007388
8555.00000 0.007243
8560.00000 0.00714
8565.00000 0.006956
8570.00000 0.006894
8575.00000 0.00683
8580.00000 0.00659
8585.00000 0.006498
8590.00000 0.00646
8595.00000 0.006309
8600.00000 0.00617
8605.00000 0.00616
8610.00000 0.006015
8615.00000 0.005872
8620.00000 0.00581
8625.00000 0.005731
8630.00000 0.005547
8635.00000 0.00556
8640.00000 0.005358
8645.00000 0.005373
8650.00000 0.005208
8655.00000 0.005115
8660.00000 0.005046
8665.00000 0.005201
8670.00000 0.005201
8675.00000 0.005258
8680.00000 0.005328
8685.00000 0.005279
8690.00000 0.005076
8695.00000 0.004489
8700.00000 0.004415
8705.00000 0.004331
8710.00000 0.004253
8715.00000 0.004173
8720.00000 0.004094
8725.00000 0.004028
9597.50000 0.0
