# %ECSV 0.9
# ---
# datatype:
# - {name: wavelength, unit: Angstrom, datatype: float32}
# - {name: response, datatype: float32}
# meta: !!omap
# - {band_name: F115LP}
# - {group_name: ACS_SBC}
wavelength response
1045.80005 0.0
1162.00000 0.0707844
1162.21997 0.0723047
1162.44995 0.0738522
1162.67004 0.0754171
1162.90002 0.077009
1163.12000 0.0786088
1163.34998 0.0802335
1163.56995 0.0818714
1163.80005 0.0835313
1164.02002 0.0852197
1164.23999 0.0869426
1164.46997 0.0886886
1164.68994 0.0904626
1164.92004 0.092261
1165.14001 0.0940831
1165.37000 0.095925
1165.58997 0.0977959
1165.81995 0.0996859
1166.04004 0.1016
1166.27002 0.10354
1166.48999 0.105511
1166.71997 0.107506
1166.93994 0.109521
1167.17004 0.111574
1167.39001 0.113642
1167.62000 0.115734
1167.83997 0.117854
1168.06995 0.120006
1168.30005 0.122178
1168.52002 0.124383
1168.75000 0.126616
1168.96997 0.128869
1169.19995 0.131157
1169.42004 0.133466
1169.65002 0.135809
1169.88000 0.138174
1170.09998 0.140539
1170.32996 0.1429
1170.55005 0.14529
1170.78003 0.1477
1171.00000 0.150136
1171.22998 0.152614
1171.45996 0.155105
1171.68005 0.157626
1171.91003 0.160172
1172.13000 0.162755
1172.35999 0.165365
1172.58997 0.167998
1172.81006 0.170667
1173.04004 0.173356
1173.27002 0.176082
1173.48999 0.178831
1173.71997 0.181615
1173.93994 0.184422
1174.17004 0.18724
1174.40002 0.190095
1174.62000 0.192964
1174.84998 0.195863
1175.07996 0.198628
1175.31006 0.201119
1175.53003 0.203617
1175.76001 0.206138
1175.98999 0.208688
1176.20996 0.21126
1176.43994 0.213848
1176.67004 0.216459
1176.89001 0.2191
1177.12000 0.22174
1177.34998 0.224395
1177.57996 0.227074
1177.80005 0.229767
1178.03003 0.232496
1178.26001 0.235269
1178.47998 0.238071
1178.70996 0.240891
1178.93994 0.243735
1179.17004 0.246585
1179.39001 0.249452
1179.62000 0.252334
1179.84998 0.255239
1180.07996 0.25815
1180.31006 0.261
1180.53003 0.263872
1180.76001 0.266774
1180.98999 0.269693
1181.21997 0.272598
1181.43994 0.275533
1181.67004 0.278489
1181.90002 0.281469
1182.13000 0.284484
1182.35999 0.287547
1182.58997 0.290622
1182.81006 0.293722
1183.04004 0.296838
1183.27002 0.299957
1183.50000 0.303099
1183.72998 0.306255
1183.95996 0.309451
1184.18005 0.312687
1184.41003 0.315953
1184.64001 0.319244
1184.87000 0.322567
1185.09998 0.32589
1185.32996 0.329215
1185.56006 0.332582
1185.79004 0.335964
1186.01001 0.339364
1186.23999 0.342827
1186.46997 0.346326
1186.69995 0.349839
1186.93005 0.353379
1187.16003 0.356926
1187.39001 0.360484
1187.62000 0.364058
1187.84998 0.367667
1188.07996 0.371316
1188.31006 0.375012
1188.53003 0.378733
1188.76001 0.382481
1188.98999 0.386266
1189.21997 0.390024
1189.44995 0.393817
1189.68005 0.397647
1189.91003 0.401485
1190.14001 0.40519
1190.37000 0.408821
1190.59998 0.412485
1190.82996 0.41616
1191.06006 0.419846
1191.29004 0.42354
1191.52002 0.427236
1191.75000 0.430954
1191.97998 0.434705
1192.20996 0.438524
1192.43994 0.442359
1192.67004 0.446217
1192.90002 0.450111
1193.13000 0.454
1193.35999 0.457879
1193.58997 0.461781
1193.81995 0.465716
1194.05005 0.469687
1194.28003 0.47371
1194.51001 0.477771
1194.73999 0.481844
1194.96997 0.48594
1195.19995 0.490026
1195.43005 0.494128
1195.66003 0.498243
1195.90002 0.502384
1196.13000 0.5066
1196.35999 0.510844
1196.58997 0.515111
1196.81995 0.519403
1197.05005 0.523736
1197.28003 0.528021
1197.51001 0.532335
1197.73999 0.536683
1197.96997 0.541044
1198.20996 0.545496
1198.43994 0.549964
1198.67004 0.554474
1198.90002 0.558995
1199.13000 0.563488
1199.35999 0.567958
1199.58997 0.572437
1199.82996 0.576943
1200.06006 0.581151
1200.29004 0.584399
1200.52002 0.587639
1200.75000 0.59089
1200.97998 0.594172
1201.21997 0.597388
1201.44995 0.60061
1201.68005 0.603843
1201.91003 0.607095
1202.14001 0.61035
1202.38000 0.613622
1202.60999 0.616905
1202.83997 0.620191
1203.06995 0.623516
1203.30005 0.626888
1203.54004 0.63028
1203.77002 0.633674
1204.00000 0.637078
1204.22998 0.640438
1204.45996 0.643809
1204.69995 0.64718
1204.93005 0.650571
1205.16003 0.653975
1205.40002 0.65738
1205.63000 0.660795
1205.85999 0.66422
1206.08997 0.667666
1206.32996 0.671114
1206.56006 0.674582
1206.79004 0.678061
1207.03003 0.681552
1207.26001 0.685042
1207.48999 0.688554
1207.71997 0.692069
1207.95996 0.695591
1208.18994 0.699127
1208.42004 0.702693
1208.66003 0.706251
1208.89001 0.709831
1209.12000 0.71341
1209.35999 0.717011
1209.58997 0.720615
1209.81995 0.724228
1210.06006 0.727867
1210.29004 0.731525
1210.52002 0.735202
1210.76001 0.73889
1210.98999 0.742592
1211.21997 0.746295
1211.45996 0.750008
1211.68994 0.753744
1211.93005 0.757482
1212.16003 0.761229
1212.39001 0.765001
1212.63000 0.768785
1212.85999 0.772579
1213.09998 0.776374
1213.32996 0.780193
1213.56006 0.784011
1213.80005 0.787842
1214.03003 0.791685
1214.27002 0.795551
1214.50000 0.79943
1214.72998 0.803308
1214.96997 0.807222
1215.19995 0.811051
1215.43994 0.81488
1215.67004 0.818722
1215.91003 0.822587
1216.14001 0.826042
1216.38000 0.829252
1216.60999 0.832469
1216.84998 0.835683
1217.07996 0.838881
1217.31995 0.842022
1217.55005 0.845175
1217.79004 0.848326
1218.02002 0.851484
1218.26001 0.854654
1218.48999 0.857831
1218.72998 0.861004
1218.95996 0.864184
1219.19995 0.867237
1219.43005 0.870247
1219.67004 0.873262
1219.90002 0.876291
1220.14001 0.878246
1220.38000 0.879468
1220.60999 0.880687
1220.84998 0.881912
1221.07996 0.883071
1221.31995 0.884115
1221.55005 0.885159
1221.79004 0.886205
1222.02002 0.887249
1222.26001 0.888295
1222.50000 0.889348
1222.72998 0.890396
1222.96997 0.891445
1223.19995 0.892495
1223.43994 0.893552
1223.68005 0.894604
1223.91003 0.895658
1224.15002 0.896716
1224.38000 0.897774
1224.62000 0.89883
1224.85999 0.899891
1225.08997 0.900839
1225.32996 0.90162
1225.56995 0.902404
1225.80005 0.903188
1226.04004 0.903954
1226.28003 0.904645
1226.51001 0.905335
1226.75000 0.906026
1226.98999 0.906716
1227.21997 0.907496
1227.45996 0.908283
1227.69995 0.90907
1227.93005 0.909856
1228.17004 0.910643
1228.41003 0.911435
1228.64001 0.912222
1228.88000 0.91301
1229.12000 0.913753
1229.35999 0.914446
1229.58997 0.91514
1229.82996 0.915837
1230.06995 0.916524
1230.31006 0.917184
1230.54004 0.917843
1230.78003 0.918504
1231.02002 0.919156
1231.26001 0.919721
1231.48999 0.920285
1231.72998 0.920851
1231.96997 0.921418
1232.20996 0.922067
1232.43994 0.922732
1232.68005 0.923395
1232.92004 0.924056
1233.16003 0.924719
1233.40002 0.925384
1233.63000 0.926048
1233.87000 0.926712
1234.10999 0.927335
1234.34998 0.927904
1234.58997 0.928472
1234.82996 0.92904
1235.06006 0.929637
1235.30005 0.930302
1235.54004 0.930969
1235.78003 0.931635
1236.02002 0.932298
1236.26001 0.932868
1236.48999 0.93344
1236.72998 0.934011
1236.96997 0.934582
1237.20996 0.935238
1237.44995 0.935909
1237.68994 0.936579
1237.93005 0.937249
1238.16003 0.93792
1238.40002 0.938593
1238.64001 0.939266
1238.88000 0.939937
1239.12000 0.94056
1239.35999 0.941133
1239.59998 0.941706
1239.83997 0.94228
1240.07996 0.942848
1240.31995 0.943395
1240.56006 0.943945
1240.80005 0.944494
1241.04004 0.945027
1241.28003 0.945477
1241.52002 0.945926
1241.76001 0.946376
1241.98999 0.946827
1242.22998 0.947374
1242.46997 0.947925
1242.70996 0.948475
1242.94995 0.949027
1243.18994 0.949577
1243.43005 0.95013
1243.67004 0.950681
1243.91003 0.951233
1244.15002 0.951721
1244.39001 0.952174
1244.63000 0.952625
1244.87000 0.953077
1245.12000 0.953579
1245.35999 0.954132
1245.59998 0.954685
1245.83997 0.955238
1246.07996 0.955794
1246.31995 0.956348
1246.56006 0.956902
1246.80005 0.957459
1247.04004 0.957998
1247.28003 0.958452
1247.52002 0.958905
1247.76001 0.95936
1248.00000 0.959813
1248.23999 0.960371
1248.47998 0.960929
1248.71997 0.961485
1248.95996 0.962042
1249.20996 0.962513
1249.44995 0.962968
1249.68994 0.963423
1249.93005 0.963878
1250.17004 0.964543
1250.41003 0.96529
1250.65002 0.966037
1250.89001 0.966785
1251.13000 0.967534
1251.38000 0.968283
1251.62000 0.969033
1251.85999 0.969784
1252.09998 0.970489
1252.33997 0.971136
1252.58997 0.971781
1252.82996 0.972427
1253.06995 0.973102
1253.31006 0.973852
1253.55005 0.974606
1253.79004 0.975356
1254.04004 0.976091
1254.28003 0.976738
1254.52002 0.977386
1254.76001 0.978031
1255.00000 0.978678
1255.25000 0.979432
1255.48999 0.980184
1255.72998 0.980935
1255.96997 0.981689
1256.21997 0.982444
1256.45996 0.983198
1256.69995 0.983951
1256.93994 0.984706
1257.18994 0.985377
1257.43005 0.986023
1257.67004 0.98667
1257.91003 0.98732
1258.16003 0.988036
1258.40002 0.988792
1258.64001 0.989548
1258.89001 0.990303
1259.13000 0.991
1259.37000 0.991647
1259.60999 0.992296
1259.85999 0.992943
1260.09998 0.993398
1260.33997 0.993574
1260.58997 0.993751
1260.82996 0.993927
1261.06995 0.994104
1261.31995 0.99428
1261.56006 0.994456
1261.80005 0.994632
1262.05005 0.994788
1262.29004 0.994855
1262.54004 0.994923
1262.78003 0.99499
1263.02002 0.995067
1263.27002 0.995243
1263.51001 0.995418
1263.75000 0.995595
1264.00000 0.99577
1264.23999 0.995838
1264.47998 0.995904
1264.72998 0.995971
1264.96997 0.996037
1265.21997 0.996201
1265.45996 0.996375
1265.70996 0.996551
1265.94995 0.996726
1266.18994 0.996902
1266.43994 0.997077
1266.68005 0.997252
1266.93005 0.997428
1267.17004 0.997525
1267.42004 0.99759
1267.66003 0.997655
1267.91003 0.99772
1268.15002 0.997852
1268.40002 0.998027
1268.64001 0.998201
1268.88000 0.998376
1269.13000 0.998493
1269.38000 0.998556
1269.62000 0.99862
1269.87000 0.998683
1270.10999 0.998766
1270.35999 0.998873
1270.59998 0.998981
1270.84998 0.999088
1271.08997 0.999195
1271.33997 0.999302
1271.57996 0.999409
1271.82996 0.999515
1272.06995 0.999589
1272.31995 0.999584
1272.56006 0.999579
1272.81006 0.999574
1273.05005 0.999593
1273.30005 0.999699
1273.55005 0.999806
1273.79004 0.999912
1274.04004 1.0
1274.28003 0.999995
1274.53003 0.999988
1274.78003 0.999982
1275.02002 0.999975
1275.27002 0.999968
1275.51001 0.999961
1275.76001 0.999954
1276.01001 0.999946
1276.25000 0.999939
1276.50000 0.999932
1276.75000 0.999924
1276.98999 0.999916
1277.23999 0.999908
1277.47998 0.9999
1277.72998 0.999891
1277.97998 0.999883
1278.21997 0.999873
1278.46997 0.999864
1278.71997 0.999855
1278.95996 0.999846
1279.20996 0.999837
1279.45996 0.999827
1279.69995 0.999817
1279.94995 0.999807
1280.19995 0.999672
1280.44995 0.999505
1280.68994 0.999339
1280.93994 0.999172
1281.18994 0.999092
1281.43005 0.999039
1281.68005 0.998985
1281.93005 0.998931
1282.18005 0.998877
1282.42004 0.998822
1282.67004 0.998769
1282.92004 0.998714
1283.17004 0.998659
1283.41003 0.998605
1283.66003 0.998549
1283.91003 0.998494
1284.16003 0.998438
1284.40002 0.998383
1284.65002 0.998327
1284.90002 0.998271
1285.15002 0.998146
1285.40002 0.997974
1285.65002 0.997803
1285.89001 0.997632
1286.14001 0.997526
1286.39001 0.997469
1286.64001 0.997411
1286.89001 0.997353
1287.13000 0.997295
1287.38000 0.997238
1287.63000 0.997179
1287.88000 0.997121
1288.13000 0.997062
1288.38000 0.997004
1288.63000 0.996945
1288.88000 0.996886
1289.12000 0.996826
1289.37000 0.996767
1289.62000 0.996707
1289.87000 0.996647
1290.12000 0.996521
1290.37000 0.996324
1290.62000 0.996125
1290.87000 0.995926
1291.12000 0.99578
1291.35999 0.995697
1291.60999 0.995614
1291.85999 0.99553
1292.10999 0.995446
1292.35999 0.995362
1292.60999 0.995277
1292.85999 0.995193
1293.10999 0.995108
1293.35999 0.995023
1293.60999 0.994938
1293.85999 0.994853
1294.10999 0.994767
1294.35999 0.994682
1294.60999 0.994596
1294.85999 0.994509
1295.10999 0.994423
1295.35999 0.994337
1295.60999 0.994251
1295.85999 0.994163
1296.10999 0.994025
1296.35999 0.993821
1296.60999 0.993617
1296.85999 0.993412
1297.10999 0.993258
1297.35999 0.99317
1297.60999 0.993081
1297.85999 0.992993
1298.10999 0.992904
1298.35999 0.992815
1298.60999 0.992726
1298.85999 0.992637
1299.10999 0.992547
1299.35999 0.992458
1299.62000 0.992368
1299.87000 0.992277
1300.12000 0.99213
1300.37000 0.991914
1300.62000 0.991697
1300.87000 0.991482
1301.12000 0.991266
1301.37000 0.991048
1301.62000 0.990831
1301.87000 0.990614
1302.12000 0.990396
1302.38000 0.990178
1302.63000 0.989959
1302.88000 0.989742
1303.13000 0.989584
1303.38000 0.989483
1303.63000 0.989382
1303.88000 0.989282
1304.14001 0.989116
1304.39001 0.988896
1304.64001 0.988676
1304.89001 0.988455
1305.14001 0.988234
1305.39001 0.988013
1305.65002 0.987791
1305.90002 0.987569
1306.15002 0.987347
1306.40002 0.987125
1306.66003 0.986903
1306.91003 0.986679
1307.16003 0.986456
1307.41003 0.986233
1307.66003 0.986008
1307.92004 0.985784
1308.17004 0.98564
1308.42004 0.985535
1308.67004 0.98543
1308.93005 0.985324
1309.18005 0.985135
1309.43005 0.984907
1309.68005 0.984682
1309.93994 0.984456
1310.18994 0.984233
1310.43994 0.984011
1310.69995 0.98379
1310.94995 0.983569
1311.19995 0.983346
1311.44995 0.983125
1311.70996 0.982901
1311.95996 0.982677
1312.20996 0.982454
1312.46997 0.982231
1312.71997 0.982007
1312.96997 0.981783
1313.22998 0.981667
1313.47998 0.981563
1313.72998 0.981457
1313.98999 0.981353
1314.23999 0.981133
1314.50000 0.980908
1314.75000 0.980681
1315.00000 0.980455
1315.26001 0.980228
1315.51001 0.980001
1315.76001 0.979774
1316.02002 0.979546
1316.27002 0.979318
1316.53003 0.979089
1316.78003 0.978861
1317.04004 0.978633
1317.29004 0.978404
1317.54004 0.978174
1317.80005 0.977945
1318.05005 0.97774
1318.31006 0.97763
1318.56006 0.977522
1318.81006 0.977412
1319.06995 0.977269
1319.31995 0.977039
1319.57996 0.976807
1319.82996 0.976576
1320.08997 0.976346
1320.33997 0.976119
1320.59998 0.975893
1320.84998 0.975666
1321.10999 0.975439
1321.35999 0.975212
1321.62000 0.974984
1321.87000 0.974757
1322.13000 0.974528
1322.38000 0.9743
1322.64001 0.974071
1322.89001 0.973842
1323.15002 0.973684
1323.40002 0.973577
1323.66003 0.97347
1323.91003 0.973363
1324.17004 0.973173
1324.43005 0.972943
1324.68005 0.972712
1324.93994 0.97248
1325.18994 0.972156
1325.44995 0.9718
1325.69995 0.971445
1325.95996 0.971089
1326.21997 0.970837
1326.46997 0.970604
1326.72998 0.97037
1326.97998 0.970136
1327.23999 0.969902
1327.50000 0.969668
1327.75000 0.969433
1328.01001 0.969198
1328.27002 0.968962
1328.52002 0.968727
1328.78003 0.968491
1329.03003 0.968238
1329.29004 0.967877
1329.55005 0.967516
1329.80005 0.967156
1330.06006 0.966823
1330.31995 0.966587
1330.56995 0.966353
1330.82996 0.966117
1331.08997 0.96588
1331.34998 0.965644
1331.59998 0.965407
1331.85999 0.96517
1332.12000 0.964933
1332.37000 0.964696
1332.63000 0.964458
1332.89001 0.964219
1333.14001 0.963979
1333.40002 0.963741
1333.66003 0.963502
1333.92004 0.963262
1334.17004 0.962939
1334.43005 0.962573
1334.68994 0.962208
1334.94995 0.961841
1335.19995 0.961574
1335.45996 0.961331
1335.71997 0.96109
1335.97998 0.960848
1336.22998 0.960606
1336.48999 0.960364
1336.75000 0.960121
1337.01001 0.959878
1337.27002 0.959633
1337.53003 0.959389
1337.78003 0.959145
1338.04004 0.95888
1338.30005 0.958509
1338.56006 0.958138
1338.81995 0.957767
1339.06995 0.957431
1339.32996 0.957184
1339.58997 0.956938
1339.84998 0.956691
1340.10999 0.956443
1340.37000 0.956196
1340.62000 0.955949
1340.88000 0.955701
1341.14001 0.955453
1341.40002 0.955204
1341.66003 0.954956
1341.92004 0.954706
1342.18005 0.954368
1342.43994 0.953992
1342.69995 0.953615
1342.95996 0.953237
1343.20996 0.952965
1343.46997 0.952714
1343.72998 0.952461
1343.98999 0.95221
1344.25000 0.951957
1344.51001 0.951704
1344.77002 0.951452
1345.03003 0.9512
1345.29004 0.950947
1345.55005 0.950692
1345.81006 0.950438
1346.06995 0.95015
1346.32996 0.949766
1346.58997 0.949384
1346.84998 0.949
1347.10999 0.948671
1347.37000 0.948414
1347.63000 0.948158
1347.89001 0.947902
1348.15002 0.947644
1348.41003 0.947387
1348.67004 0.947129
1348.93005 0.946871
1349.18994 0.946613
1349.44995 0.946355
1349.70996 0.946096
1349.96997 0.945837
1350.22998 0.945461
1350.48999 0.945073
1350.75000 0.944684
1351.01001 0.9443
1351.27002 0.944039
1351.54004 0.943778
1351.80005 0.943516
1352.06006 0.943225
1352.31995 0.942835
1352.57996 0.942442
1352.83997 0.942048
1353.09998 0.941706
1353.35999 0.941443
1353.62000 0.941178
1353.88000 0.940913
1354.15002 0.940576
1354.41003 0.940182
1354.67004 0.939785
1354.93005 0.939389
1355.18994 0.93909
1355.44995 0.938823
1355.70996 0.938556
1355.97998 0.938289
1356.23999 0.937902
1356.50000 0.937504
1356.76001 0.937106
1357.02002 0.936706
1357.29004 0.936306
1357.55005 0.935907
1357.81006 0.935508
1358.06995 0.935143
1358.32996 0.934871
1358.59998 0.934601
1358.85999 0.93433
1359.12000 0.933998
1359.38000 0.933595
1359.64001 0.933193
1359.91003 0.93279
1360.17004 0.93247
1360.43005 0.932197
1360.68994 0.931923
1360.95996 0.931649
1361.21997 0.931263
1361.47998 0.930857
1361.73999 0.930451
1362.01001 0.930048
1362.27002 0.929773
1362.53003 0.929497
1362.80005 0.92922
1363.06006 0.928912
1363.31995 0.928504
1363.58997 0.928094
1363.84998 0.927684
1364.10999 0.927331
1364.38000 0.927052
1364.64001 0.926773
1364.90002 0.926494
1365.16003 0.926132
1365.43005 0.925719
1365.68994 0.925306
1365.95996 0.924892
1366.21997 0.92459
1366.47998 0.924309
1366.75000 0.924027
1367.01001 0.923739
1367.27002 0.923325
1367.54004 0.922909
1367.80005 0.922492
1368.06995 0.922109
1368.32996 0.921826
1368.59998 0.921541
1368.85999 0.921257
1369.12000 0.920911
1369.39001 0.920493
1369.65002 0.920073
1369.92004 0.919653
1370.18005 0.919325
1370.44995 0.919036
1370.70996 0.918749
1370.96997 0.918461
1371.23999 0.918051
1371.50000 0.917629
1371.77002 0.917207
1372.03003 0.916799
1372.30005 0.916509
1372.56006 0.916219
1372.82996 0.915928
1373.08997 0.91559
1373.35999 0.915165
1373.62000 0.91474
1373.89001 0.914315
1374.15002 0.913964
1374.42004 0.913671
1374.68005 0.913379
1374.94995 0.913086
1375.20996 0.912682
1375.47998 0.912254
1375.73999 0.911825
1376.01001 0.911395
1376.28003 0.910966
1376.54004 0.910534
1376.81006 0.910103
1377.06995 0.909709
1377.33997 0.909412
1377.59998 0.909115
1377.87000 0.908817
1378.14001 0.908451
1378.40002 0.908018
1378.67004 0.907584
1378.93005 0.907148
1379.19995 0.906715
1379.46997 0.906281
1379.72998 0.905844
1380.00000 0.905408
1380.27002 0.905105
1380.53003 0.904802
1380.80005 0.904499
1381.06006 0.904162
1381.32996 0.903723
1381.59998 0.903282
1381.85999 0.902842
1382.13000 0.902401
1382.40002 0.901958
1382.66003 0.901517
1382.93005 0.901075
1383.19995 0.900733
1383.45996 0.900425
1383.72998 0.900119
1384.00000 0.899812
1384.27002 0.899369
1384.53003 0.898923
1384.80005 0.898479
1385.06995 0.898066
1385.33997 0.897757
1385.59998 0.897447
1385.87000 0.897137
1386.14001 0.896757
1386.40002 0.896309
1386.67004 0.895861
1386.93994 0.895413
1387.20996 0.894961
1387.46997 0.894512
1387.73999 0.894062
1388.01001 0.893618
1388.28003 0.893303
1388.55005 0.89299
1388.81006 0.892676
1389.07996 0.89232
1389.34998 0.891867
1389.62000 0.891413
1389.89001 0.890961
1390.16003 0.890503
1390.42004 0.890046
1390.68994 0.88959
1390.95996 0.889131
1391.22998 0.888791
1391.50000 0.888471
1391.77002 0.888151
1392.04004 0.88781
1392.30005 0.887349
1392.56995 0.886889
1392.83997 0.886429
1393.10999 0.885967
1393.38000 0.885506
1393.65002 0.885044
1393.92004 0.884581
1394.18005 0.884212
1394.44995 0.883888
1394.71997 0.883562
1394.98999 0.883237
1395.26001 0.882776
1395.53003 0.882312
1395.80005 0.881845
1396.06995 0.88138
1396.33997 0.880913
1396.60999 0.880445
1396.88000 0.879976
1397.15002 0.879586
1397.42004 0.879257
1397.68994 0.878928
1397.95996 0.878599
1398.22998 0.878152
1398.50000 0.877681
1398.77002 0.87721
1399.04004 0.876739
1399.31006 0.876269
1399.57996 0.875794
1399.84998 0.875323
1400.12000 0.87491
1400.39001 0.874573
1400.66003 0.874236
1400.93005 0.873898
1401.19995 0.873459
1401.46997 0.872979
1401.73999 0.872499
1402.01001 0.872025
1402.28003 0.871686
1402.55005 0.871346
1402.81995 0.871007
1403.08997 0.870599
1403.35999 0.870055
1403.63000 0.869513
1403.90002 0.868971
1404.17004 0.868426
1404.44995 0.867882
1404.71997 0.867339
1404.98999 0.866795
1405.26001 0.866385
1405.53003 0.865981
1405.80005 0.865577
1406.06995 0.865136
1406.34998 0.864589
1406.62000 0.864041
1406.89001 0.863495
1407.16003 0.862948
1407.43005 0.862399
1407.69995 0.861851
1407.96997 0.8613
1408.25000 0.860881
1408.52002 0.860473
1408.79004 0.860067
1409.06006 0.859627
1409.32996 0.859074
1409.60999 0.858524
1409.88000 0.857974
1410.15002 0.857417
1410.42004 0.856861
1410.68994 0.856304
1410.96997 0.855745
1411.23999 0.855313
1411.51001 0.854897
1411.78003 0.854481
1412.06006 0.854035
1412.32996 0.853476
1412.59998 0.852915
1412.87000 0.852354
1413.15002 0.851794
1413.42004 0.851234
1413.68994 0.850673
1413.95996 0.85011
1414.23999 0.849672
1414.51001 0.849253
1414.78003 0.848831
1415.06006 0.848382
1415.32996 0.847819
1415.59998 0.847255
1415.88000 0.846689
1416.15002 0.846125
1416.42004 0.845559
1416.69995 0.844993
1416.96997 0.844425
1417.23999 0.843987
1417.52002 0.843565
1417.79004 0.843141
1418.06006 0.842684
1418.33997 0.842117
1418.60999 0.841547
1418.88000 0.840977
1419.16003 0.840492
1419.43005 0.840066
1419.70996 0.839641
1419.97998 0.839214
1420.25000 0.838649
1420.53003 0.838073
1420.80005 0.837495
1421.07996 0.836918
1421.34998 0.836338
1421.63000 0.835757
1421.90002 0.835179
1422.17004 0.834692
1422.44995 0.834257
1422.71997 0.833822
1423.00000 0.833387
1423.27002 0.832808
1423.55005 0.832225
1423.81995 0.831643
1424.09998 0.831061
1424.37000 0.830479
1424.65002 0.829895
1424.92004 0.829313
1425.18994 0.828833
1425.46997 0.828394
1425.73999 0.827955
1426.02002 0.827505
1426.30005 0.826918
1426.56995 0.826332
1426.84998 0.825746
1427.12000 0.825161
1427.40002 0.824573
1427.67004 0.823987
1427.94995 0.8234
1428.21997 0.82293
1428.50000 0.822487
1428.78003 0.822045
1429.05005 0.821574
1429.32996 0.820984
1429.59998 0.820394
1429.88000 0.819805
1430.15002 0.819293
1430.43005 0.818841
1430.70996 0.818388
1430.97998 0.817937
1431.26001 0.817346
1431.54004 0.816745
1431.81006 0.816146
1432.08997 0.815547
1432.37000 0.814945
1432.64001 0.814345
1432.92004 0.813742
1433.18994 0.813244
1433.46997 0.812788
1433.75000 0.812334
1434.02002 0.811864
1434.30005 0.81126
1434.57996 0.810657
1434.84998 0.810054
1435.13000 0.809517
1435.41003 0.80906
1435.68005 0.808603
1435.95996 0.808145
1436.23999 0.807557
1436.52002 0.806951
1436.79004 0.806345
1437.06995 0.805736
1437.34998 0.80513
1437.63000 0.804521
1437.90002 0.803914
1438.18005 0.8034
1438.45996 0.80294
1438.72998 0.802479
1439.01001 0.802009
1439.29004 0.801398
1439.56995 0.800788
1439.84998 0.800176
1440.12000 0.799627
1440.40002 0.799156
1440.68005 0.798685
1440.95996 0.798213
1441.23999 0.797611
1441.52002 0.796991
1441.79004 0.796371
1442.06995 0.795785
1442.34998 0.795311
1442.63000 0.794837
1442.91003 0.794363
1443.18005 0.793789
1443.45996 0.793166
1443.73999 0.792542
1444.02002 0.791916
1444.30005 0.79129
1444.57996 0.790663
1444.85999 0.790038
1445.14001 0.789484
1445.41003 0.789007
1445.68994 0.78853
1445.96997 0.788051
1446.25000 0.787438
1446.53003 0.786809
1446.81006 0.786182
1447.08997 0.785598
1447.37000 0.785119
1447.65002 0.784639
1447.93005 0.78416
1448.20996 0.783567
1448.48999 0.782938
1448.77002 0.782303
1449.05005 0.781673
1449.32996 0.78104
1449.60999 0.780408
1449.88000 0.779774
1450.16003 0.779224
1450.43994 0.778733
1450.71997 0.77824
1451.00000 0.777745
1451.28003 0.7771
1451.56006 0.776457
1451.83997 0.775811
1452.12000 0.775232
1452.40002 0.774738
1452.68005 0.774244
1452.95996 0.773747
1453.23999 0.77312
1453.53003 0.772473
1453.81006 0.771824
1454.08997 0.771225
1454.37000 0.770727
1454.65002 0.770231
1454.93005 0.769732
1455.20996 0.769122
1455.48999 0.768474
1455.77002 0.767824
1456.05005 0.7672
1456.32996 0.766702
1456.62000 0.766201
1456.90002 0.765701
1457.18005 0.765105
1457.45996 0.764454
1457.73999 0.763801
1458.02002 0.763161
1458.30005 0.762658
1458.57996 0.762157
1458.87000 0.761655
1459.15002 0.761074
1459.43005 0.760418
1459.70996 0.759764
1459.98999 0.759108
1460.27002 0.758591
1460.56006 0.758077
1460.83997 0.757561
1461.12000 0.756982
1461.40002 0.756316
1461.68005 0.755645
1461.96997 0.754978
1462.25000 0.754445
1462.53003 0.753929
1462.81006 0.753412
1463.09998 0.752843
1463.38000 0.752174
1463.66003 0.751503
1463.93994 0.750833
1464.21997 0.750164
1464.51001 0.749491
1464.79004 0.748819
1465.06995 0.748187
1465.34998 0.747668
1465.64001 0.747148
1465.92004 0.746626
1466.19995 0.745996
1466.48999 0.745324
1466.77002 0.744647
1467.05005 0.744002
1467.33997 0.743481
1467.62000 0.74296
1467.90002 0.742435
1468.18994 0.741813
1468.46997 0.741138
1468.75000 0.74046
1469.04004 0.739803
1469.31995 0.73928
1469.59998 0.738755
1469.89001 0.73823
1470.17004 0.737607
1470.44995 0.736916
1470.73999 0.736225
1471.02002 0.735547
1471.31006 0.73501
1471.58997 0.734473
1471.87000 0.733934
1472.16003 0.733311
1472.43994 0.732619
1472.72998 0.731926
1473.01001 0.731237
1473.29004 0.730698
1473.57996 0.730159
1473.85999 0.729619
1474.15002 0.729
1474.43005 0.728306
1474.71997 0.727609
1475.00000 0.726912
1475.29004 0.726371
1475.56995 0.725829
1475.85999 0.725287
1476.14001 0.72467
1476.42004 0.723973
1476.70996 0.723277
1476.98999 0.722576
1477.28003 0.722031
1477.56995 0.721486
1477.84998 0.720941
1478.13000 0.720323
1478.42004 0.719625
1478.70996 0.718924
1478.98999 0.718224
1479.28003 0.717675
1479.56006 0.717128
1479.84998 0.716581
1480.13000 0.716027
1480.42004 0.715469
1480.69995 0.714911
1480.98999 0.71435
1481.28003 0.713641
1481.56006 0.712926
1481.84998 0.712207
1482.13000 0.711564
1482.42004 0.711002
1482.70996 0.710442
1482.98999 0.709879
1483.28003 0.709166
1483.56006 0.708449
1483.84998 0.707732
1484.14001 0.707087
1484.42004 0.706523
1484.70996 0.705959
1485.00000 0.705396
1485.28003 0.704676
1485.56995 0.703957
1485.85999 0.703235
1486.14001 0.702593
1486.43005 0.702029
1486.71997 0.701463
1487.00000 0.700894
1487.29004 0.70017
1487.57996 0.699449
1487.87000 0.698727
1488.15002 0.698086
1488.43994 0.697519
1488.72998 0.696953
1489.01001 0.696384
1489.30005 0.695815
1489.58997 0.695246
1489.88000 0.69468
1490.16003 0.694013
1490.44995 0.693273
1490.73999 0.692532
1491.03003 0.691808
1491.31006 0.691224
1491.59998 0.690639
1491.89001 0.690054
1492.18005 0.689373
1492.46997 0.688631
1492.75000 0.687889
1493.04004 0.687169
1493.32996 0.686584
1493.62000 0.685999
1493.91003 0.685412
1494.19995 0.684719
1494.47998 0.683976
1494.77002 0.683233
1495.06006 0.68252
1495.34998 0.681933
1495.64001 0.681345
1495.93005 0.680757
1496.20996 0.680051
1496.50000 0.679304
1496.79004 0.678556
1497.07996 0.677855
1497.37000 0.677267
1497.66003 0.676676
1497.94995 0.676086
1498.23999 0.675496
1498.53003 0.674907
1498.81995 0.674315
1499.10999 0.673666
1499.39001 0.672918
1499.68005 0.67217
1499.96997 0.671418
1500.26001 0.670801
1500.55005 0.670197
1500.83997 0.66959
1501.13000 0.668912
1501.42004 0.668146
1501.70996 0.667383
1502.00000 0.666619
1502.29004 0.666011
1502.57996 0.665405
1502.87000 0.664797
1503.16003 0.664188
1503.44995 0.663581
1503.73999 0.662972
1504.03003 0.662348
1504.31995 0.66158
1504.60999 0.660814
1504.90002 0.660047
1505.18994 0.659383
1505.47998 0.658774
1505.77002 0.658163
1506.06006 0.657552
1506.35999 0.656942
1506.65002 0.656332
1506.93994 0.655722
1507.22998 0.654985
1507.52002 0.654217
1507.81006 0.653447
1508.09998 0.652729
1508.39001 0.652117
1508.68005 0.651504
1508.96997 0.650892
1509.26001 0.650135
1509.56006 0.649362
1509.84998 0.648591
1510.14001 0.647889
1510.43005 0.647264
1510.71997 0.646639
1511.01001 0.646016
1511.31006 0.645388
1511.59998 0.644764
1511.89001 0.64414
1512.18005 0.643415
1512.46997 0.642631
1512.76001 0.641846
1513.06006 0.64109
1513.34998 0.640462
1513.64001 0.639835
1513.93005 0.639209
1514.21997 0.638582
1514.52002 0.637954
1514.81006 0.637328
1515.09998 0.636646
1515.39001 0.635857
1515.68994 0.635068
1515.97998 0.63428
1516.27002 0.63364
1516.56006 0.633011
1516.85999 0.63238
1517.15002 0.631671
1517.43994 0.630882
1517.72998 0.630091
1518.03003 0.629315
1518.31995 0.628683
1518.60999 0.628052
1518.91003 0.627422
1519.19995 0.626792
1519.48999 0.62616
1519.79004 0.62553
1520.07996 0.624854
1520.37000 0.624053
1520.67004 0.623252
1520.95996 0.622453
1521.25000 0.621792
1521.55005 0.621151
1521.83997 0.62051
1522.13000 0.61987
1522.43005 0.61923
1522.71997 0.618589
1523.02002 0.617938
1523.31006 0.617137
1523.59998 0.616336
1523.90002 0.61553
1524.18994 0.614833
1524.48999 0.614192
1524.78003 0.613551
1525.06995 0.612907
1525.37000 0.612265
1525.66003 0.61162
1525.95996 0.610978
1526.25000 0.610197
1526.55005 0.609393
1526.83997 0.608587
1527.14001 0.607855
1527.43005 0.607212
1527.71997 0.606566
1528.02002 0.605921
1528.31995 0.605277
1528.60999 0.604633
1528.90002 0.603987
1529.19995 0.603231
1529.48999 0.602424
1529.79004 0.601618
1530.08997 0.600855
1530.38000 0.600203
1530.68005 0.599553
1530.96997 0.598901
1531.27002 0.598251
1531.56006 0.5976
1531.85999 0.596949
1532.15002 0.596297
1532.44995 0.595644
1532.73999 0.594992
1533.04004 0.594314
1533.33997 0.5935
1533.63000 0.592687
1533.93005 0.591873
1534.21997 0.591179
1534.52002 0.590525
1534.81995 0.589873
1535.10999 0.589218
1535.41003 0.588563
1535.70996 0.587909
1536.00000 0.587254
1536.30005 0.586436
1536.59998 0.58562
1536.89001 0.584804
1537.18994 0.584088
1537.47998 0.583432
1537.78003 0.582777
1538.07996 0.582121
1538.38000 0.581464
1538.67004 0.580808
1538.96997 0.580152
1539.27002 0.579497
1539.56006 0.578839
1539.85999 0.578181
1540.16003 0.577435
1540.45996 0.576613
1540.75000 0.575793
1541.05005 0.574999
1541.34998 0.574339
1541.64001 0.57368
1541.93994 0.573022
1542.23999 0.572361
1542.54004 0.5717
1542.83997 0.57104
1543.13000 0.570308
1543.43005 0.569484
1543.72998 0.568659
1544.03003 0.56785
1544.31995 0.56719
1544.62000 0.566527
1544.92004 0.565867
1545.21997 0.565204
1545.52002 0.564539
1545.81995 0.563878
1546.10999 0.563217
1546.41003 0.562553
1546.70996 0.561893
1547.01001 0.561225
1547.31006 0.560399
1547.60999 0.559569
1547.90002 0.558744
1548.19995 0.558029
1548.50000 0.557364
1548.80005 0.556699
1549.09998 0.556036
1549.40002 0.555372
1549.69995 0.554706
1550.00000 0.55404
1550.30005 0.553356
1550.59998 0.552671
1550.89001 0.551983
1551.18994 0.551189
1551.48999 0.55034
1551.79004 0.549491
1552.08997 0.548689
1552.39001 0.548003
1552.68994 0.547315
1552.98999 0.546629
1553.29004 0.545941
1553.58997 0.545254
1553.89001 0.544567
1554.18994 0.543856
1554.48999 0.543136
1554.79004 0.542416
1555.08997 0.541693
1555.39001 0.540973
1555.68994 0.540252
1555.98999 0.53953
1556.29004 0.538807
1556.58997 0.538087
1556.89001 0.537366
1557.18994 0.536643
1557.48999 0.535922
1557.79004 0.535199
1558.08997 0.534482
1558.39001 0.533776
1558.68994 0.53307
1558.98999 0.532365
1559.30005 0.531642
1559.59998 0.530918
1559.90002 0.530196
1560.19995 0.529474
1560.50000 0.528755
1560.80005 0.528037
1561.09998 0.527318
1561.40002 0.526598
1561.70996 0.525878
1562.01001 0.52516
1562.31006 0.524441
1562.60999 0.52372
1562.91003 0.522999
1563.20996 0.52228
1563.52002 0.521559
1563.81995 0.52084
1564.12000 0.520127
1564.42004 0.519424
1564.71997 0.518718
1565.03003 0.518012
1565.32996 0.51729
1565.63000 0.51657
1565.93005 0.515847
1566.22998 0.515127
1566.54004 0.514407
1566.83997 0.513684
1567.14001 0.512961
1567.43994 0.51224
1567.73999 0.511519
1568.05005 0.510794
1568.34998 0.510073
1568.65002 0.509352
1568.95996 0.508628
1569.26001 0.507906
1569.56006 0.507184
1569.87000 0.506458
1570.17004 0.505749
1570.46997 0.505049
1570.77002 0.504351
1571.07996 0.503645
1571.38000 0.50293
1571.68005 0.502215
1571.98999 0.501497
1572.29004 0.500781
1572.58997 0.500063
1572.90002 0.499345
1573.19995 0.498629
1573.50000 0.49791
1573.81006 0.497194
1574.10999 0.496477
1574.41003 0.495759
1574.71997 0.495041
1575.02002 0.494323
1575.32996 0.493641
1575.63000 0.492955
1575.93005 0.492268
1576.23999 0.491568
1576.54004 0.490869
1576.84998 0.490166
1577.15002 0.489462
1577.44995 0.488763
1577.76001 0.488057
1578.06995 0.487357
1578.37000 0.486671
1578.67004 0.485984
1578.97998 0.485298
1579.28003 0.484596
1579.58997 0.483892
1579.89001 0.483189
1580.19995 0.482501
1580.50000 0.481825
1580.81006 0.481145
1581.10999 0.480462
1581.42004 0.479766
1581.71997 0.479072
1582.03003 0.478376
1582.32996 0.477681
1582.64001 0.476987
1582.94995 0.476288
1583.25000 0.475607
1583.56006 0.474927
1583.85999 0.474246
1584.17004 0.473558
1584.46997 0.472863
1584.78003 0.472165
1585.08997 0.471469
1585.39001 0.470771
1585.69995 0.470075
1586.00000 0.469377
1586.31006 0.468698
1586.60999 0.468018
1586.92004 0.467335
1587.22998 0.466641
1587.53003 0.465944
1587.83997 0.465247
1588.15002 0.464555
1588.44995 0.463873
1588.76001 0.463192
1589.06995 0.462505
1589.37000 0.461805
1589.68005 0.461107
1589.98999 0.460409
1590.29004 0.459722
1590.59998 0.459032
1590.91003 0.458345
1591.20996 0.457669
1591.52002 0.456997
1591.82996 0.456326
1592.13000 0.455648
1592.43994 0.454958
1592.75000 0.454268
1593.06006 0.453581
1593.37000 0.45291
1593.67004 0.452236
1593.97998 0.451564
1594.29004 0.450876
1594.59998 0.450186
1594.90002 0.449495
1595.20996 0.448805
1595.52002 0.448116
1595.82996 0.447422
1596.13000 0.44674
1596.43994 0.446066
1596.75000 0.445393
1597.06006 0.444714
1597.37000 0.444024
1597.67004 0.443333
1597.97998 0.442639
1598.29004 0.441962
1598.59998 0.441287
1598.91003 0.440611
1599.21997 0.439924
1599.53003 0.439232
1599.83997 0.438541
1600.14001 0.437858
1600.44995 0.437192
1600.76001 0.436526
1601.06995 0.435859
1601.38000 0.435191
1601.68994 0.434526
1602.00000 0.43386
1602.31006 0.433191
1602.62000 0.432525
1602.92004 0.431859
1603.22998 0.43119
1603.54004 0.430522
1603.84998 0.429853
1604.16003 0.429186
1604.46997 0.428519
1604.78003 0.42785
1605.08997 0.427183
1605.40002 0.426516
1605.70996 0.425846
1606.02002 0.425175
1606.32996 0.424489
1606.64001 0.423802
1606.94995 0.423117
1607.26001 0.422446
1607.56995 0.421776
1607.88000 0.421109
1608.18994 0.420442
1608.50000 0.419776
1608.81006 0.419111
1609.12000 0.418447
1609.43005 0.41778
1609.73999 0.417116
1610.06006 0.416452
1610.37000 0.415803
1610.68005 0.415154
1610.98999 0.414503
1611.30005 0.413852
1611.60999 0.4132
1611.92004 0.412549
1612.22998 0.411901
1612.54004 0.411248
1612.84998 0.410598
1613.16003 0.409948
1613.47998 0.409293
1613.79004 0.408643
1614.09998 0.407989
1614.41003 0.407338
1614.71997 0.406687
1615.04004 0.406033
1615.34998 0.40538
1615.66003 0.404728
1615.96997 0.404075
1616.28003 0.403421
1616.58997 0.402767
1616.91003 0.402114
1617.21997 0.40146
1617.53003 0.400806
1617.83997 0.400151
1618.15002 0.399489
1618.46997 0.398819
1618.78003 0.398145
1619.08997 0.397479
1619.40002 0.396824
1619.71997 0.39617
1620.03003 0.395515
1620.33997 0.394878
1620.65002 0.394239
1620.96997 0.3936
1621.28003 0.392962
1621.58997 0.392323
1621.91003 0.391685
1622.21997 0.391044
1622.53003 0.390406
1622.84998 0.389765
1623.16003 0.389124
1623.46997 0.388485
1623.78003 0.387845
1624.09998 0.387204
1624.41003 0.386562
1624.71997 0.385922
1625.04004 0.385286
1625.34998 0.384678
1625.67004 0.384071
1625.97998 0.383464
1626.29004 0.382855
1626.60999 0.382246
1626.92004 0.381636
1627.22998 0.381016
1627.55005 0.38039
1627.85999 0.379763
1628.18005 0.379148
1628.48999 0.378535
1628.81006 0.377926
1629.12000 0.377317
1629.43005 0.376706
1629.75000 0.376095
1630.06006 0.375489
1630.38000 0.374898
1630.68994 0.374305
1631.01001 0.373714
1631.31995 0.373105
1631.64001 0.372494
1631.94995 0.371883
1632.27002 0.371286
1632.57996 0.370694
1632.90002 0.3701
1633.20996 0.369506
1633.53003 0.368912
1633.83997 0.368318
1634.16003 0.367723
1634.46997 0.367127
1634.79004 0.36653
1635.10999 0.365934
1635.42004 0.36534
1635.73999 0.364743
1636.05005 0.364145
1636.37000 0.363531
1636.68005 0.362916
1637.00000 0.362301
1637.31995 0.361702
1637.63000 0.361104
1637.94995 0.360506
1638.26001 0.359909
1638.57996 0.359309
1638.89001 0.358711
1639.20996 0.358113
1639.53003 0.357512
1639.84998 0.356912
1640.16003 0.356312
1640.47998 0.355716
1640.79004 0.355119
1641.10999 0.354526
1641.43005 0.353945
1641.73999 0.353365
1642.06006 0.352782
1642.38000 0.352199
1642.68994 0.351617
1643.01001 0.351035
1643.32996 0.350449
1643.65002 0.349866
1643.95996 0.349283
1644.28003 0.3487
1644.59998 0.348114
1644.92004 0.347529
1645.22998 0.34693
1645.55005 0.346326
1645.87000 0.345724
1646.18994 0.345131
1646.50000 0.344544
1646.81995 0.343957
1647.14001 0.343371
1647.45996 0.342783
1647.78003 0.342194
1648.08997 0.341606
1648.41003 0.341019
1648.72998 0.340429
1649.05005 0.339839
1649.37000 0.33925
1649.68005 0.338661
1650.00000 0.338071
1650.31995 0.337556
1650.64001 0.337042
1650.95996 0.336527
1651.28003 0.336026
1651.59998 0.335528
1651.91003 0.33503
1652.22998 0.33453
1652.55005 0.334031
1652.87000 0.33353
1653.18994 0.333028
1653.51001 0.332528
1653.82996 0.332026
1654.15002 0.331525
1654.46997 0.331021
1654.79004 0.330517
1655.09998 0.330014
1655.42004 0.329509
1655.73999 0.329004
1656.06006 0.328499
1656.38000 0.327994
1656.69995 0.327487
1657.02002 0.326979
1657.33997 0.326472
1657.66003 0.325965
1657.97998 0.325456
1658.30005 0.324946
1658.62000 0.324438
1658.93994 0.323927
1659.26001 0.323418
1659.57996 0.322908
1659.90002 0.322397
1660.21997 0.321897
1660.54004 0.321404
1660.85999 0.32091
1661.18005 0.320414
1661.51001 0.31992
1661.82996 0.319425
1662.15002 0.318928
1662.46997 0.318432
1662.79004 0.317934
1663.10999 0.317437
1663.43005 0.316938
1663.75000 0.316439
1664.06995 0.31594
1664.39001 0.315441
1664.70996 0.314939
1665.04004 0.314439
1665.35999 0.313938
1665.68005 0.313435
1666.00000 0.312931
1666.31995 0.312428
1666.64001 0.311922
1666.95996 0.311418
1667.29004 0.310913
1667.60999 0.310407
1667.93005 0.309903
1668.25000 0.309395
1668.56995 0.308887
1668.90002 0.308378
1669.21997 0.307869
1669.54004 0.30736
1669.85999 0.306851
1670.18005 0.306349
1670.51001 0.305855
1670.82996 0.30536
1671.15002 0.304864
1671.46997 0.304366
1671.80005 0.30387
1672.12000 0.303373
1672.43994 0.302873
1672.77002 0.302373
1673.08997 0.301874
1673.41003 0.301375
1673.72998 0.300873
1674.06006 0.30037
1674.38000 0.299868
1674.69995 0.299364
1675.03003 0.298865
1675.34998 0.298416
1675.67004 0.297965
1676.00000 0.297515
1676.31995 0.297047
1676.64001 0.296577
1676.96997 0.296105
1677.29004 0.29565
1677.60999 0.295198
1677.93994 0.294743
1678.26001 0.294273
1678.58997 0.2938
1678.91003 0.293326
1679.22998 0.292864
1679.56006 0.292406
1679.88000 0.291949
1680.20996 0.291498
1680.53003 0.291052
1680.85999 0.290607
1681.18005 0.290151
1681.50000 0.289685
1681.82996 0.289218
1682.15002 0.28876
1682.47998 0.288311
1682.80005 0.28786
1683.13000 0.287403
1683.44995 0.286934
1683.78003 0.286464
1684.09998 0.285997
1684.43005 0.285544
1684.75000 0.285091
1685.07996 0.28463
1685.40002 0.284157
1685.72998 0.283683
1686.05005 0.283211
1686.38000 0.282753
1686.69995 0.282296
1687.03003 0.281838
1687.34998 0.281379
1687.68005 0.28092
1688.01001 0.280459
1688.32996 0.27998
1688.66003 0.279499
1688.97998 0.279018
1689.31006 0.278555
1689.63000 0.278091
1689.95996 0.277626
1690.29004 0.277155
1690.60999 0.27668
1690.93994 0.276207
1691.27002 0.275748
1691.58997 0.275292
1691.92004 0.274835
1692.25000 0.274362
1692.56995 0.273885
1692.90002 0.273406
1693.21997 0.272941
1693.55005 0.272479
1693.88000 0.272019
1694.20996 0.271556
1694.53003 0.271094
1694.85999 0.270631
1695.18994 0.270156
1695.51001 0.269671
1695.83997 0.269187
1696.17004 0.268711
1696.50000 0.268245
1696.81995 0.267776
1697.15002 0.2673
1697.47998 0.266812
1697.81006 0.266322
1698.13000 0.26584
1698.45996 0.265369
1698.79004 0.264895
1699.12000 0.264416
1699.43994 0.263924
1699.77002 0.26343
1700.09998 0.262946
1700.43005 0.262478
1700.76001 0.262011
1701.08997 0.261536
1701.41003 0.261049
1701.73999 0.26056
1702.06995 0.260076
1702.40002 0.259605
1702.72998 0.259135
1703.06006 0.258661
1703.38000 0.258169
1703.70996 0.257678
1704.04004 0.257186
1704.37000 0.256691
1704.69995 0.2562
1705.03003 0.255708
1705.35999 0.255234
1705.68994 0.25476
1706.02002 0.254282
1706.34998 0.253788
1706.68005 0.25329
1707.00000 0.252795
1707.32996 0.252317
1707.66003 0.251839
1707.98999 0.251359
1708.31995 0.250862
1708.65002 0.250364
1708.97998 0.249864
1709.31006 0.249364
1709.64001 0.248863
1709.96997 0.248361
1710.30005 0.247885
1710.63000 0.247409
1710.95996 0.246934
1711.29004 0.246441
1711.62000 0.245944
1711.94995 0.245448
1712.28003 0.244966
1712.60999 0.244489
1712.93994 0.244009
1713.27002 0.243514
1713.60999 0.243014
1713.93994 0.242513
1714.27002 0.242013
1714.59998 0.241512
1714.93005 0.241011
1715.26001 0.240523
1715.58997 0.24004
1715.92004 0.239556
1716.25000 0.239056
1716.57996 0.238552
1716.91003 0.238048
1717.25000 0.237557
1717.57996 0.237071
1717.91003 0.236583
1718.23999 0.236082
1718.56995 0.235574
1718.90002 0.235066
1719.22998 0.234572
1719.56995 0.234082
1719.90002 0.233591
1720.22998 0.233091
1720.56006 0.232585
1720.90002 0.232078
1721.22998 0.231572
1721.56006 0.231065
1721.89001 0.230556
1722.21997 0.23006
1722.56006 0.229572
1722.89001 0.229083
1723.21997 0.228579
1723.56006 0.228067
1723.89001 0.227556
1724.21997 0.227057
1724.55005 0.226565
1724.88000 0.226073
1725.21997 0.225606
1725.55005 0.22515
1725.88000 0.224697
1726.21997 0.224241
1726.55005 0.223787
1726.88000 0.22333
1727.21997 0.222874
1727.55005 0.222418
1727.88000 0.22196
1728.21997 0.221501
1728.55005 0.221043
1728.88000 0.220585
1729.21997 0.220137
1729.55005 0.219698
1729.88000 0.219258
1730.21997 0.218807
1730.55005 0.218348
1730.89001 0.217891
1731.21997 0.217432
1731.56006 0.216972
1731.89001 0.21651
1732.21997 0.216049
1732.56006 0.215588
1732.89001 0.215126
1733.22998 0.214665
1733.56006 0.214201
1733.90002 0.213737
1734.22998 0.213288
1734.56995 0.212845
1734.90002 0.212399
1735.22998 0.211939
1735.56995 0.211474
1735.90002 0.211008
1736.23999 0.21054
1736.56995 0.210073
1736.91003 0.209605
1737.23999 0.209136
1737.57996 0.208666
1737.92004 0.208195
1738.25000 0.207739
1738.58997 0.207291
1738.92004 0.206839
1739.26001 0.206373
1739.58997 0.205901
1739.93005 0.205426
1740.27002 0.204954
1740.59998 0.204482
1740.93994 0.204008
1741.27002 0.203536
1741.60999 0.203063
1741.93994 0.202588
1742.28003 0.202114
1742.62000 0.201638
1742.94995 0.201162
1743.29004 0.200703
1743.63000 0.200247
1743.95996 0.19979
1744.30005 0.199315
1744.64001 0.198835
1744.96997 0.198357
1745.31006 0.197878
1745.65002 0.197397
1745.97998 0.196914
1746.31995 0.196433
1746.66003 0.19595
1746.98999 0.195468
1747.32996 0.194985
1747.67004 0.194502
1748.01001 0.194017
1748.33997 0.193553
1748.68005 0.193089
1749.02002 0.192623
1749.35999 0.192136
1749.68994 0.19165
1750.03003 0.191179
1750.37000 0.190883
1750.70996 0.190588
1751.04004 0.190294
1751.38000 0.190018
1751.71997 0.189742
1752.06006 0.189465
1752.40002 0.189188
1752.73999 0.18891
1753.06995 0.188628
1753.41003 0.188329
1753.75000 0.188029
1754.08997 0.187733
1754.43005 0.187453
1754.77002 0.187174
1755.09998 0.186893
1755.43994 0.186612
1755.78003 0.186331
1756.12000 0.186041
1756.45996 0.185736
1756.80005 0.185432
1757.14001 0.185136
1757.47998 0.184852
1757.81995 0.184568
1758.15002 0.184274
1758.48999 0.183967
1758.82996 0.183659
1759.17004 0.183363
1759.51001 0.183077
1759.84998 0.182789
1760.18994 0.182502
1760.53003 0.182215
1760.87000 0.181928
1761.20996 0.181626
1761.55005 0.181316
1761.89001 0.181006
1762.22998 0.180709
1762.56995 0.180419
1762.91003 0.180128
1763.25000 0.179821
1763.58997 0.179509
1763.93005 0.179195
1764.27002 0.178899
1764.60999 0.178605
1764.94995 0.178312
1765.29004 0.178019
1765.63000 0.177724
1765.97998 0.177429
1766.31995 0.177114
1766.66003 0.176797
1767.00000 0.176479
1767.33997 0.176183
1767.68005 0.175887
1768.02002 0.175587
1768.35999 0.175267
1768.69995 0.174946
1769.05005 0.174629
1769.39001 0.17433
1769.72998 0.17403
1770.06995 0.17373
1770.41003 0.173431
1770.75000 0.17313
1771.09998 0.172822
1771.43994 0.172498
1771.78003 0.172174
1772.12000 0.171857
1772.45996 0.171555
1772.80005 0.171252
1773.15002 0.170948
1773.48999 0.170644
1773.82996 0.170338
1774.17004 0.170021
1774.52002 0.169693
1774.85999 0.169365
1775.19995 0.169088
1775.54004 0.168848
1775.89001 0.168607
1776.22998 0.168352
1776.56995 0.168087
1776.91003 0.167823
1777.26001 0.167575
1777.59998 0.167332
1777.93994 0.167089
1778.29004 0.166845
1778.63000 0.166602
1778.96997 0.166358
1779.31995 0.166092
1779.66003 0.165824
1780.00000 0.165557
1780.34998 0.165312
1780.68994 0.165065
1781.04004 0.164817
1781.38000 0.164549
1781.71997 0.164279
1782.06995 0.164014
1782.41003 0.163766
1782.75000 0.163517
1783.09998 0.163262
1783.43994 0.162991
1783.79004 0.162719
1784.13000 0.162455
1784.46997 0.162205
1784.81995 0.161955
1785.16003 0.161704
1785.51001 0.161452
1785.84998 0.161201
1786.19995 0.160936
1786.54004 0.16066
1786.89001 0.160384
1787.22998 0.160124
1787.57996 0.15987
1787.92004 0.159616
1788.27002 0.159343
1788.60999 0.159066
1788.95996 0.158787
1789.30005 0.158528
1789.65002 0.158272
1789.98999 0.158015
1790.33997 0.157759
1790.68005 0.157502
1791.03003 0.157243
1791.38000 0.156962
1791.71997 0.156681
1792.06995 0.156404
1792.41003 0.156145
1792.76001 0.155886
1793.09998 0.155619
1793.44995 0.155336
1793.80005 0.155052
1794.14001 0.154776
1794.48999 0.154515
1794.83997 0.154254
1795.18005 0.153991
1795.53003 0.153728
1795.88000 0.153465
1796.21997 0.153187
1796.56995 0.1529
1796.91003 0.152611
1797.26001 0.15234
1797.60999 0.152076
1797.94995 0.15181
1798.30005 0.151524
1798.65002 0.151235
1799.00000 0.150944
1799.33997 0.150676
1799.68994 0.150407
1800.04004 0.150143
1800.39001 0.149914
1800.72998 0.149684
1801.07996 0.149453
1801.43005 0.149223
1801.78003 0.148991
1802.12000 0.14876
1802.46997 0.148527
1802.81995 0.148294
1803.17004 0.148049
1803.52002 0.147793
1803.85999 0.147535
1804.20996 0.147291
1804.56006 0.147057
1804.91003 0.146821
1805.26001 0.146584
1805.59998 0.146349
1805.94995 0.146111
1806.30005 0.145874
1806.65002 0.145637
1807.00000 0.145398
1807.34998 0.145161
1807.69995 0.144921
1808.05005 0.144681
1808.39001 0.144441
1808.73999 0.1442
1809.08997 0.14396
1809.43994 0.143719
1809.79004 0.143477
1810.14001 0.143235
1810.48999 0.142993
1810.83997 0.14275
1811.18994 0.142494
1811.54004 0.142227
1811.89001 0.141958
1812.23999 0.141705
1812.58997 0.141461
1812.93994 0.141216
1813.29004 0.14097
1813.64001 0.140724
1813.98999 0.140476
1814.33997 0.140229
1814.68994 0.139981
1815.04004 0.139733
1815.39001 0.139484
1815.73999 0.139235
1816.08997 0.138986
1816.43994 0.138736
1816.79004 0.138486
1817.14001 0.138234
1817.48999 0.137983
1817.83997 0.137731
1818.18994 0.137478
1818.54004 0.137225
1818.89001 0.136972
1819.23999 0.136702
1819.59998 0.136422
1819.94995 0.136142
1820.30005 0.135884
1820.65002 0.135628
1821.00000 0.135372
1821.34998 0.135117
1821.69995 0.13486
1822.06006 0.134603
1822.41003 0.134345
1822.76001 0.134087
1823.10999 0.133829
1823.45996 0.133569
1823.81006 0.13331
1824.17004 0.13305
1824.52002 0.132789
1824.87000 0.132528
1825.21997 0.132283
1825.57996 0.132045
1825.93005 0.131807
1826.28003 0.13157
1826.63000 0.131332
1826.97998 0.131093
1827.33997 0.130854
1827.68994 0.130614
1828.04004 0.130374
1828.40002 0.130134
1828.75000 0.129893
1829.09998 0.129651
1829.44995 0.12941
1829.81006 0.129167
1830.16003 0.128925
1830.51001 0.128682
1830.87000 0.128439
1831.21997 0.128195
1831.56995 0.127951
1831.93005 0.127705
1832.28003 0.12746
1832.63000 0.127215
1832.98999 0.126969
1833.33997 0.126723
1833.69995 0.126475
1834.05005 0.126228
1834.40002 0.12598
1834.76001 0.125732
1835.10999 0.125483
1835.46997 0.125234
1835.81995 0.124984
1836.17004 0.124734
1836.53003 0.124484
1836.88000 0.124233
1837.23999 0.123981
1837.58997 0.123729
1837.94995 0.123476
1838.30005 0.123224
1838.66003 0.12297
1839.01001 0.122717
1839.37000 0.122463
1839.71997 0.122207
1840.07996 0.121952
1840.43005 0.121696
1840.79004 0.12144
1841.14001 0.121184
1841.50000 0.120928
1841.84998 0.12067
1842.20996 0.120413
1842.56006 0.120155
1842.92004 0.119896
1843.28003 0.119636
1843.63000 0.119377
1843.98999 0.119117
1844.33997 0.118856
1844.69995 0.118595
1845.05005 0.118334
1845.41003 0.118072
1845.77002 0.117809
1846.12000 0.117547
1846.47998 0.117283
1846.83997 0.117018
1847.18994 0.116754
1847.55005 0.116489
1847.90002 0.116224
1848.26001 0.115958
1848.62000 0.115692
1848.96997 0.115426
1849.32996 0.115157
1849.68994 0.11489
1850.05005 0.114623
1850.40002 0.114362
1850.76001 0.1141
1851.12000 0.113838
1851.46997 0.113577
1851.82996 0.113314
1852.18994 0.113051
1852.55005 0.112788
1852.90002 0.112523
1853.26001 0.112259
1853.62000 0.111995
1853.97998 0.111731
1854.32996 0.111466
1854.68994 0.1112
1855.05005 0.110935
1855.41003 0.110668
1855.77002 0.110401
1856.12000 0.110135
1856.47998 0.109868
1856.83997 0.1096
1857.19995 0.109331
1857.56006 0.109063
1857.92004 0.108795
1858.28003 0.108525
1858.63000 0.108255
1858.98999 0.107986
1859.34998 0.107715
1859.70996 0.107444
1860.06995 0.107174
1860.43005 0.106903
1860.79004 0.106631
1861.15002 0.10636
1861.51001 0.106087
1861.85999 0.105815
1862.21997 0.105541
1862.57996 0.105268
1862.93994 0.104995
1863.30005 0.104721
1863.66003 0.104446
1864.02002 0.104171
1864.38000 0.103895
1864.73999 0.10362
1865.09998 0.103344
1865.45996 0.103068
1865.81995 0.10279
1866.18005 0.102513
1866.54004 0.102236
1866.90002 0.101958
1867.26001 0.101681
1867.62000 0.101401
1867.97998 0.101123
1868.33997 0.100816
1868.69995 0.10051
1869.06006 0.100207
1869.42004 0.0999262
1869.79004 0.0996449
1870.15002 0.099364
1870.51001 0.0990821
1870.87000 0.0988006
1871.22998 0.098518
1871.58997 0.0982358
1871.94995 0.0979532
1872.31006 0.0976693
1872.67004 0.0973852
1873.04004 0.0971015
1873.40002 0.0968173
1873.76001 0.0965311
1874.12000 0.0962462
1874.47998 0.0959601
1874.83997 0.0956752
1875.20996 0.0954042
1875.56995 0.0951456
1875.93005 0.0948867
1876.29004 0.094626
1876.65002 0.0943657
1877.02002 0.0941056
1877.38000 0.0938446
1877.73999 0.093584
1878.09998 0.093315
1878.46997 0.0930247
1878.82996 0.0927341
1879.18994 0.0924587
1879.55005 0.0921962
1879.92004 0.0919326
1880.28003 0.0916688
1880.64001 0.0914054
1881.00000 0.0911416
1881.37000 0.0908768
1881.72998 0.0906124
1882.08997 0.0903468
1882.45996 0.0900817
1882.81995 0.0898154
1883.18005 0.0895344
1883.55005 0.0892398
1883.91003 0.088944
1884.27002 0.0886701
1884.64001 0.088402
1885.00000 0.0881342
1885.37000 0.0878654
1885.72998 0.0875962
1886.08997 0.0873274
1886.45996 0.0870575
1886.81995 0.086788
1887.18005 0.0865181
1887.55005 0.0862472
1887.91003 0.0859765
1888.28003 0.0856829
1888.64001 0.0853829
1889.01001 0.0850823
1889.37000 0.0848103
1889.73999 0.0845378
1890.09998 0.0842642
1890.46997 0.0839904
1890.82996 0.0837169
1891.18994 0.0834432
1891.56006 0.0831682
1891.93005 0.0828922
1892.29004 0.0825943
1892.66003 0.0822894
1893.02002 0.0819867
1893.39001 0.0817106
1893.75000 0.0814342
1894.12000 0.0811567
1894.47998 0.0808787
1894.84998 0.0806012
1895.20996 0.0803227
1895.57996 0.0800444
1895.93994 0.0797658
1896.31006 0.0794761
1896.68005 0.0791843
1897.04004 0.0788937
1897.41003 0.0786077
1897.78003 0.0783199
1898.14001 0.0780333
1898.51001 0.0777454
1898.88000 0.0774579
1899.23999 0.0771693
1899.60999 0.0768811
1899.96997 0.0765925
1900.33997 0.0763246
1900.70996 0.0760561
1901.07996 0.0757895
1901.43994 0.0755248
1901.81006 0.0752597
1902.18005 0.074992
1902.54004 0.0747232
1902.91003 0.0744532
1903.28003 0.0741858
1903.64001 0.073918
1904.01001 0.0736497
1904.38000 0.073378
1904.75000 0.0731061
1905.12000 0.0728345
1905.47998 0.0725626
1905.84998 0.0722894
1906.21997 0.0720183
1906.58997 0.0717481
1906.94995 0.0714768
1907.31995 0.0712024
1907.68994 0.0709272
1908.06006 0.0706537
1908.43005 0.0703807
1908.79004 0.0701081
1909.16003 0.0698338
1909.53003 0.0695559
1909.90002 0.0692791
1910.27002 0.0690034
1910.64001 0.0687281
1911.01001 0.0684531
1911.38000 0.068174
1911.73999 0.0678953
1912.10999 0.0676154
1912.47998 0.0673359
1912.84998 0.067056
1913.21997 0.0667766
1913.58997 0.0664981
1913.95996 0.06622
1914.32996 0.0659388
1914.69995 0.065656
1915.06995 0.065375
1915.43994 0.0650945
1915.81006 0.0648136
1916.18005 0.0645307
1916.55005 0.0642459
1916.92004 0.0639615
1917.29004 0.0636767
1917.66003 0.0633907
1918.03003 0.0631045
1918.40002 0.0628207
1918.77002 0.0625381
1919.14001 0.0622523
1919.51001 0.0619643
1919.88000 0.0616758
1920.25000 0.0613906
1920.62000 0.0611044
1920.98999 0.0608178
1921.35999 0.0605294
1921.72998 0.0602389
1922.09998 0.0599489
1922.46997 0.0596606
1922.83997 0.0593728
1923.20996 0.0590819
1923.58997 0.0587901
1923.95996 0.0584971
1924.32996 0.0582073
1924.69995 0.0579174
1925.06995 0.0576286
1925.43994 0.0573493
1925.81995 0.0570697
1926.18994 0.0567897
1926.56006 0.0565109
1926.93005 0.05623
1927.30005 0.0559521
1927.67004 0.0556744
1928.05005 0.0553951
1928.42004 0.0551127
1928.79004 0.0548298
1929.16003 0.0545496
1929.53003 0.0542691
1929.91003 0.0539882
1930.28003 0.0537046
1930.65002 0.0534206
1931.02002 0.0531362
1931.40002 0.0528506
1931.77002 0.0525646
1932.14001 0.0522793
1932.52002 0.0519965
1932.89001 0.0517132
1933.26001 0.0514265
1933.63000 0.0511393
1934.01001 0.0508518
1934.38000 0.0505661
1934.76001 0.0502799
1935.13000 0.0499932
1935.50000 0.0497039
1935.87000 0.0494135
1936.25000 0.0491255
1936.62000 0.0488373
1936.98999 0.0485496
1937.37000 0.0482575
1937.73999 0.047965
1938.12000 0.047672
1938.48999 0.0473787
1938.87000 0.0470858
1939.23999 0.0467945
1939.62000 0.0465031
1939.98999 0.0462128
1940.35999 0.0459176
1940.73999 0.0456218
1941.10999 0.0453265
1941.48999 0.0450339
1941.85999 0.0447409
1942.23999 0.0444446
1942.60999 0.0441476
1942.97998 0.0438501
1943.35999 0.0435545
1943.72998 0.0432586
1944.10999 0.0429613
1944.48999 0.0426613
1944.85999 0.0423618
1945.23999 0.0420618
1945.60999 0.0417606
1945.98999 0.041459
1946.35999 0.0411609
1946.73999 0.0408625
1947.12000 0.0405618
1947.48999 0.0402585
1947.87000 0.0399556
1948.23999 0.0396544
1948.62000 0.0393539
1948.98999 0.039053
1949.37000 0.0387508
1949.75000 0.0384482
1950.12000 0.0381473
1950.50000 0.0378504
1950.88000 0.0375539
1951.25000 0.0372591
1951.63000 0.0369643
1952.01001 0.0366689
1952.38000 0.036374
1952.76001 0.0360787
1953.13000 0.0357822
1953.51001 0.0354852
1953.89001 0.0351887
1954.27002 0.0348918
1954.64001 0.0345936
1955.02002 0.0342949
1955.40002 0.0339977
1955.78003 0.0336982
1956.15002 0.0333984
1956.53003 0.0330982
1956.91003 0.0327974
1957.29004 0.0324972
1957.66003 0.0321966
1958.04004 0.0318947
1958.42004 0.0315933
1958.80005 0.0312905
1959.17004 0.0309867
1959.55005 0.0306798
1959.93005 0.0303725
1960.31006 0.0300684
1960.68994 0.0297644
1961.06995 0.0294589
1961.43994 0.0291527
1961.81995 0.0288461
1962.19995 0.0285383
1962.57996 0.0282301
1962.95996 0.0279224
1963.33997 0.0276143
1963.71997 0.0273049
1964.09998 0.0269951
1964.47998 0.026685
1964.84998 0.0263761
1965.22998 0.0260652
1965.60999 0.0257538
1965.98999 0.0254422
1966.37000 0.02513
1966.75000 0.0248184
1967.13000 0.0245063
1967.51001 0.0241931
1967.89001 0.0238801
1968.27002 0.023567
1968.65002 0.0232525
1969.03003 0.0229376
1969.41003 0.0226231
1969.79004 0.0223083
1970.17004 0.0219923
1970.55005 0.0216767
1970.93005 0.0213598
1971.31006 0.0210406
1971.68994 0.0207195
1972.06995 0.0203988
1972.44995 0.0200812
1972.83997 0.0197614
1973.20996 0.019443
1973.59998 0.0191242
1973.97998 0.0188041
1974.35999 0.0184918
1974.73999 0.0181778
1975.12000 0.0178802
1975.50000 0.01762
1975.88000 0.0173609
1976.26001 0.0171023
1976.64001 0.0168445
1977.03003 0.0165871
1977.41003 0.0163293
1977.79004 0.0160705
1978.17004 0.0158129
1978.55005 0.0155569
1978.93005 0.0153006
1979.31995 0.0150418
1979.69995 0.0147822
1980.07996 0.0145214
1980.45996 0.0142603
1980.83997 0.0140005
1981.22998 0.0137408
1981.60999 0.0134829
1981.98999 0.0132233
1982.37000 0.0129614
1982.76001 0.0126991
1983.14001 0.0124377
1983.52002 0.0121782
1983.90002 0.0119177
1984.29004 0.0116543
1984.67004 0.0113904
1985.05005 0.0111247
1985.43994 0.0108601
1985.81995 0.0105951
1986.19995 0.0103311
1986.58997 0.0100682
1986.96997 0.00980584
1987.34998 0.0095399
1987.73999 0.00927264
1988.12000 0.00900545
1988.50000 0.00873963
1988.89001 0.00847352
1989.27002 0.00820629
1989.65002 0.00793955
1990.04004 0.00767241
1990.42004 0.00740382
1990.81006 0.00713495
1991.18994 0.00686589
1991.57996 0.00659673
1991.95996 0.00632874
1992.34998 0.00605885
1992.72998 0.00578868
1993.12000 0.00551814
1993.50000 0.00524801
1993.88000 0.0049776
1994.27002 0.00470589
1994.65002 0.00443362
1995.04004 0.00416188
1995.42004 0.00389018
1995.81006 0.00361734
1996.18994 0.0033449
1996.57996 0.00307218
1996.95996 0.00279832
1997.34998 0.00251861
2197.08496 0.0
