# %ECSV 0.9
# ---
# datatype:
# - {name: wavelength, unit: Angstrom, datatype: float32}
# - {name: response, datatype: float32}
# meta: !!omap
# - {band_name: F125LP}
# - {group_name: ACS_SBC}
wavelength response
1094.40002 0.0
1216.00000 0.00753846
1216.22998 0.00783446
1216.45996 0.00813203
1216.68994 0.0084296
1216.92004 0.008727
1217.15002 0.00902604
1217.38000 0.00932549
1217.60999 0.00962487
1217.82996 0.00992467
1218.06006 0.0105523
1218.29004 0.0120144
1218.52002 0.0134832
1218.75000 0.0149556
1218.97998 0.0164356
1219.20996 0.0179151
1219.43994 0.0193927
1219.67004 0.0208726
1219.90002 0.0223547
1220.13000 0.0239285
1220.35999 0.0255733
1220.58997 0.0272261
1220.81995 0.0288782
1221.05005 0.0305326
1221.28003 0.0321908
1221.51001 0.0338476
1221.73999 0.0355083
1221.96997 0.0371721
1222.19995 0.0387127
1222.43005 0.0402347
1222.66003 0.0417594
1222.89001 0.0432869
1223.12000 0.0448172
1223.34998 0.046356
1223.58997 0.0478926
1223.81995 0.049437
1224.05005 0.051402
1224.28003 0.0550369
1224.51001 0.05869
1224.73999 0.0623595
1224.96997 0.066028
1225.19995 0.069683
1225.43005 0.073363
1225.66003 0.0770166
1225.89001 0.0806862
1226.12000 0.086209
1226.35999 0.093377
1226.58997 0.100533
1226.81995 0.107701
1227.05005 0.114897
1227.28003 0.122092
1227.51001 0.129296
1227.73999 0.136512
1227.96997 0.143756
1228.19995 0.157059
1228.43994 0.17115
1228.67004 0.185267
1228.90002 0.199409
1229.13000 0.213555
1229.35999 0.227707
1229.59998 0.241964
1229.82996 0.256145
1230.06006 0.269441
1230.29004 0.280167
1230.52002 0.290875
1230.75000 0.301599
1230.97998 0.312328
1231.21997 0.323076
1231.44995 0.333797
1231.68005 0.344532
1231.91003 0.355309
1232.15002 0.36384
1232.38000 0.371063
1232.60999 0.378294
1232.83997 0.385554
1233.07996 0.392802
1233.31006 0.400038
1233.54004 0.407324
1233.77002 0.414619
1234.00000 0.421899
1234.23999 0.429146
1234.46997 0.436418
1234.69995 0.443657
1234.93005 0.450924
1235.17004 0.45825
1235.40002 0.46558
1235.63000 0.472918
1235.87000 0.480285
1236.09998 0.487616
1236.32996 0.494928
1236.56006 0.502244
1236.80005 0.509594
1237.03003 0.516933
1237.26001 0.524324
1237.50000 0.531726
1237.72998 0.539155
1237.95996 0.546575
1238.19995 0.554002
1238.43005 0.561456
1238.66003 0.568901
1238.90002 0.576354
1239.13000 0.583779
1239.35999 0.591189
1239.59998 0.5986
1239.82996 0.606024
1240.06995 0.612599
1240.30005 0.616832
1240.53003 0.621067
1240.77002 0.625294
1241.00000 0.629551
1241.22998 0.633731
1241.46997 0.637917
1241.69995 0.642106
1241.93994 0.646308
1242.17004 0.65055
1242.40002 0.654813
1242.64001 0.659093
1242.87000 0.663364
1243.10999 0.667641
1243.33997 0.671932
1243.57996 0.676214
1243.81006 0.680488
1244.04004 0.684766
1244.28003 0.689011
1244.51001 0.693238
1244.75000 0.697464
1244.97998 0.701696
1245.21997 0.705996
1245.44995 0.710306
1245.68005 0.714622
1245.92004 0.718952
1246.15002 0.723274
1246.39001 0.727601
1246.62000 0.731928
1246.85999 0.736274
1247.08997 0.740581
1247.32996 0.744844
1247.56995 0.749121
1247.80005 0.75339
1248.04004 0.75735
1248.27002 0.759515
1248.51001 0.761684
1248.73999 0.76386
1248.97998 0.766031
1249.20996 0.768139
1249.44995 0.770233
1249.68005 0.772328
1249.92004 0.77442
1250.15002 0.776467
1250.39001 0.778481
1250.62000 0.780496
1250.85999 0.782524
1251.09998 0.784539
1251.32996 0.786551
1251.56995 0.788568
1251.80005 0.790594
1252.04004 0.792599
1252.28003 0.794536
1252.51001 0.79648
1252.75000 0.798417
1252.97998 0.800356
1253.21997 0.802374
1253.45996 0.804404
1253.68994 0.806427
1253.93005 0.808453
1254.16003 0.810426
1254.40002 0.812362
1254.64001 0.814304
1254.87000 0.816247
1255.10999 0.818241
1255.34998 0.820272
1255.57996 0.822301
1255.81995 0.824333
1256.06006 0.826366
1256.29004 0.828399
1256.53003 0.830433
1256.77002 0.832474
1257.00000 0.834509
1257.23999 0.836457
1257.47998 0.838412
1257.70996 0.840361
1257.94995 0.84231
1258.18994 0.84433
1258.43005 0.846377
1258.66003 0.848416
1258.90002 0.850459
1259.14001 0.85245
1259.37000 0.854407
1259.60999 0.856361
1259.84998 0.858314
1260.08997 0.859944
1260.31995 0.860996
1260.56006 0.862046
1260.80005 0.863099
1261.04004 0.864155
1261.27002 0.865208
1261.51001 0.866265
1261.75000 0.867321
1261.98999 0.868372
1262.21997 0.869339
1262.45996 0.870303
1262.69995 0.871265
1262.93994 0.872226
1263.18005 0.873257
1263.41003 0.874314
1263.65002 0.875369
1263.89001 0.876425
1264.13000 0.877429
1264.37000 0.878393
1264.60999 0.879355
1264.83997 0.880316
1265.07996 0.881314
1265.31995 0.882366
1265.56006 0.883423
1265.80005 0.884482
1266.04004 0.885542
1266.28003 0.886599
1266.51001 0.887657
1266.75000 0.888714
1266.98999 0.889771
1267.22998 0.890737
1267.46997 0.891699
1267.70996 0.892663
1267.94995 0.893628
1268.18005 0.894662
1268.42004 0.895723
1268.66003 0.896782
1268.90002 0.897841
1269.14001 0.898842
1269.38000 0.899807
1269.62000 0.900769
1269.85999 0.901728
1270.09998 0.902711
1270.33997 0.903711
1270.57996 0.904712
1270.81995 0.905712
1271.06006 0.906715
1271.30005 0.907714
1271.54004 0.908715
1271.78003 0.909718
1272.01001 0.910713
1272.25000 0.911617
1272.48999 0.912519
1272.72998 0.913421
1272.96997 0.914321
1273.20996 0.915311
1273.44995 0.916314
1273.68994 0.917315
1273.93005 0.918317
1274.17004 0.919245
1274.41003 0.920148
1274.65002 0.921048
1274.89001 0.921949
1275.13000 0.922851
1275.38000 0.92375
1275.62000 0.92465
1275.85999 0.925549
1276.09998 0.926447
1276.33997 0.927347
1276.57996 0.928248
1276.81995 0.929146
1277.06006 0.930046
1277.30005 0.930945
1277.54004 0.93184
1277.78003 0.932739
1278.02002 0.933637
1278.26001 0.934534
1278.50000 0.93543
1278.73999 0.936332
1278.97998 0.937225
1279.21997 0.938122
1279.46997 0.939021
1279.70996 0.939916
1279.94995 0.940812
1280.18994 0.941258
1280.43005 0.941582
1280.67004 0.941905
1280.91003 0.942229
1281.16003 0.94262
1281.40002 0.943047
1281.64001 0.943473
1281.88000 0.9439
1282.12000 0.944326
1282.35999 0.944752
1282.59998 0.945178
1282.84998 0.945605
1283.08997 0.946031
1283.32996 0.946456
1283.56995 0.94688
1283.81006 0.947305
1284.06006 0.947729
1284.30005 0.948154
1284.54004 0.948579
1284.78003 0.949002
1285.02002 0.949415
1285.27002 0.949732
1285.51001 0.950049
1285.75000 0.950365
1285.98999 0.95068
1286.22998 0.9511
1286.47998 0.951521
1286.71997 0.951942
1286.95996 0.952362
1287.19995 0.952784
1287.44995 0.953206
1287.68994 0.953626
1287.93005 0.954047
1288.18005 0.954467
1288.42004 0.954885
1288.66003 0.955304
1288.90002 0.955725
1289.15002 0.956143
1289.39001 0.956561
1289.63000 0.956981
1289.88000 0.957398
1290.12000 0.957753
1290.35999 0.958041
1290.60999 0.95833
1290.84998 0.958617
1291.08997 0.958944
1291.32996 0.959339
1291.57996 0.959735
1291.81995 0.960129
1292.06995 0.960524
1292.31006 0.960919
1292.55005 0.961313
1292.80005 0.961706
1293.04004 0.9621
1293.28003 0.962491
1293.53003 0.962884
1293.77002 0.963277
1294.01001 0.96367
1294.26001 0.964062
1294.50000 0.964454
1294.75000 0.964845
1294.98999 0.965236
1295.22998 0.965626
1295.47998 0.966016
1295.71997 0.966407
1295.96997 0.966797
1296.20996 0.96709
1296.44995 0.967368
1296.69995 0.967647
1296.93994 0.967924
1297.18994 0.968286
1297.43005 0.968675
1297.68005 0.969062
1297.92004 0.969448
1298.16003 0.969834
1298.41003 0.970222
1298.65002 0.970609
1298.90002 0.970995
1299.14001 0.971381
1299.39001 0.971765
1299.63000 0.972151
1299.88000 0.972535
1300.12000 0.972894
1300.37000 0.973226
1300.62000 0.973559
1300.85999 0.973889
1301.09998 0.974219
1301.34998 0.974548
1301.59998 0.974878
1301.83997 0.975207
1302.08997 0.975536
1302.32996 0.975864
1302.57996 0.976192
1302.81995 0.976517
1303.06995 0.976875
1303.31006 0.977315
1303.56006 0.977756
1303.80005 0.978194
1304.05005 0.97861
1304.30005 0.978934
1304.54004 0.979257
1304.79004 0.97958
1305.03003 0.979902
1305.28003 0.980225
1305.53003 0.980547
1305.77002 0.980866
1306.02002 0.981187
1306.26001 0.981506
1306.51001 0.981825
1306.76001 0.982143
1307.00000 0.982462
1307.25000 0.982779
1307.48999 0.983096
1307.73999 0.983413
1307.98999 0.983729
1308.22998 0.984155
1308.47998 0.984586
1308.72998 0.985018
1308.96997 0.985447
1309.21997 0.985773
1309.46997 0.986087
1309.70996 0.9864
1309.95996 0.986712
1310.20996 0.987028
1310.44995 0.987343
1310.69995 0.987659
1310.94995 0.987974
1311.18994 0.988288
1311.43994 0.988602
1311.68994 0.988916
1311.93994 0.989229
1312.18005 0.989542
1312.43005 0.989853
1312.68005 0.990164
1312.93005 0.990476
1313.17004 0.99087
1313.42004 0.991298
1313.67004 0.991725
1313.92004 0.992154
1314.16003 0.992503
1314.41003 0.99281
1314.66003 0.993118
1314.91003 0.993425
1315.15002 0.993731
1315.40002 0.994036
1315.65002 0.994341
1315.90002 0.994646
1316.15002 0.994949
1316.39001 0.995254
1316.64001 0.995557
1316.89001 0.995858
1317.14001 0.996159
1317.39001 0.996461
1317.63000 0.996762
1317.88000 0.997062
1318.13000 0.997426
1318.38000 0.997846
1318.63000 0.998265
1318.88000 0.998685
1319.13000 0.999043
1319.37000 0.99934
1319.62000 0.999636
1319.87000 0.999932
1320.12000 1.0
1320.37000 0.999826
1320.62000 0.999651
1320.87000 0.999474
1321.12000 0.999298
1321.37000 0.999122
1321.60999 0.998946
1321.85999 0.998769
1322.10999 0.998591
1322.35999 0.998414
1322.60999 0.998236
1322.85999 0.998058
1323.10999 0.997933
1323.35999 0.997877
1323.60999 0.99782
1323.85999 0.997765
1324.10999 0.997656
1324.35999 0.997475
1324.60999 0.997295
1324.85999 0.997115
1325.09998 0.996884
1325.35999 0.996577
1325.59998 0.996272
1325.84998 0.995967
1326.09998 0.995712
1326.34998 0.99553
1326.59998 0.995347
1326.84998 0.995164
1327.09998 0.99498
1327.34998 0.994796
1327.59998 0.994612
1327.85999 0.994427
1328.09998 0.994242
1328.34998 0.994057
1328.59998 0.993872
1328.85999 0.993685
1329.10999 0.993448
1329.35999 0.993137
1329.60999 0.992825
1329.85999 0.992513
1330.10999 0.992256
1330.35999 0.992071
1330.60999 0.991884
1330.85999 0.991699
1331.10999 0.991513
1331.35999 0.991326
1331.60999 0.99114
1331.85999 0.990953
1332.10999 0.990764
1332.37000 0.990576
1332.62000 0.990388
1332.87000 0.9902
1333.12000 0.990011
1333.37000 0.989822
1333.62000 0.989633
1333.87000 0.989443
1334.12000 0.98919
1334.38000 0.988873
1334.63000 0.988558
1334.88000 0.988241
1335.13000 0.987989
1335.38000 0.987796
1335.63000 0.987604
1335.88000 0.987411
1336.14001 0.987219
1336.39001 0.987026
1336.64001 0.986831
1336.89001 0.986637
1337.14001 0.986443
1337.40002 0.986249
1337.65002 0.986054
1337.90002 0.985859
1338.15002 0.985587
1338.40002 0.985265
1338.66003 0.984941
1338.91003 0.984618
1339.16003 0.984374
1339.41003 0.984178
1339.67004 0.98398
1339.92004 0.983781
1340.17004 0.983816
1340.42004 0.983963
1340.68005 0.984108
1340.93005 0.984253
1341.18005 0.984398
1341.43005 0.984542
1341.68994 0.984685
1341.93994 0.984828
1342.18994 0.984873
1342.44995 0.984887
1342.69995 0.9849
1342.94995 0.984913
1343.19995 0.985027
1343.45996 0.985166
1343.70996 0.985306
1343.95996 0.985444
1344.21997 0.985582
1344.46997 0.985718
1344.71997 0.985855
1344.97998 0.985992
1345.22998 0.986127
1345.47998 0.986262
1345.73999 0.986397
1345.98999 0.986531
1346.23999 0.986539
1346.50000 0.986542
1346.75000 0.986544
1347.01001 0.986549
1347.26001 0.98668
1347.52002 0.986811
1347.77002 0.986941
1348.02002 0.98707
1348.28003 0.987198
1348.53003 0.987327
1348.79004 0.987454
1349.04004 0.987581
1349.29004 0.987708
1349.55005 0.987834
1349.80005 0.987959
1350.06006 0.988055
1350.31006 0.988048
1350.56995 0.98804
1350.81995 0.988031
1351.06995 0.98806
1351.32996 0.988181
1351.57996 0.988303
1351.83997 0.988423
1352.08997 0.988495
1352.34998 0.988481
1352.59998 0.988468
1352.85999 0.988454
1353.10999 0.988496
1353.37000 0.988613
1353.62000 0.98873
1353.88000 0.988846
1354.13000 0.988892
1354.39001 0.988873
1354.64001 0.988854
1354.90002 0.988833
1355.15002 0.988892
1355.41003 0.989005
1355.66003 0.989116
1355.92004 0.989226
1356.17004 0.989245
1356.43005 0.989221
1356.68994 0.989195
1356.93994 0.989169
1357.19995 0.989142
1357.44995 0.989115
1357.70996 0.989086
1357.95996 0.989058
1358.21997 0.989144
1358.47998 0.989249
1358.72998 0.989353
1358.98999 0.989456
1359.25000 0.989429
1359.50000 0.989395
1359.76001 0.989362
1360.01001 0.989312
1360.27002 0.989031
1360.53003 0.988748
1360.78003 0.988465
1361.04004 0.988161
1361.30005 0.987741
1361.55005 0.987322
1361.81006 0.986899
1362.06995 0.986512
1362.31995 0.986228
1362.57996 0.985943
1362.83997 0.985656
1363.08997 0.985321
1363.34998 0.984898
1363.60999 0.984474
1363.85999 0.98405
1364.12000 0.98369
1364.38000 0.983402
1364.63000 0.983113
1364.89001 0.982825
1365.15002 0.982456
1365.41003 0.982029
1365.66003 0.981602
1365.92004 0.981176
1366.18005 0.980843
1366.43005 0.980552
1366.68994 0.98026
1366.94995 0.979969
1367.20996 0.979565
1367.46997 0.979136
1367.71997 0.978706
1367.97998 0.978276
1368.23999 0.977971
1368.50000 0.977678
1368.76001 0.977383
1369.01001 0.977083
1369.27002 0.97665
1369.53003 0.976217
1369.79004 0.975784
1370.05005 0.975373
1370.30005 0.975076
1370.56006 0.974779
1370.81995 0.97448
1371.07996 0.974142
1371.33997 0.973704
1371.59998 0.973267
1371.84998 0.972828
1372.10999 0.97245
1372.37000 0.972151
1372.63000 0.971851
1372.89001 0.971551
1373.15002 0.971172
1373.41003 0.970731
1373.66003 0.970289
1373.92004 0.969848
1374.18005 0.969506
1374.43994 0.969203
1374.69995 0.968899
1374.95996 0.968596
1375.21997 0.968175
1375.47998 0.96773
1375.73999 0.967287
1376.00000 0.966843
1376.26001 0.966396
1376.52002 0.965952
1376.77002 0.965506
1377.03003 0.965078
1377.29004 0.96477
1377.55005 0.964465
1377.81006 0.964157
1378.06995 0.96381
1378.32996 0.963361
1378.58997 0.962912
1378.84998 0.962464
1379.10999 0.962014
1379.37000 0.961564
1379.63000 0.961114
1379.89001 0.960663
1380.15002 0.960116
1380.41003 0.959499
1380.67004 0.958883
1380.93005 0.958265
1381.18994 0.957544
1381.44995 0.956787
1381.70996 0.956029
1381.96997 0.95527
1382.22998 0.954513
1382.48999 0.953755
1382.75000 0.952996
1383.01001 0.952244
1383.28003 0.951626
1383.54004 0.951008
1383.80005 0.950389
1384.06006 0.94974
1384.31995 0.948983
1384.57996 0.948225
1384.83997 0.947463
1385.09998 0.946758
1385.35999 0.94614
1385.62000 0.945517
1385.88000 0.944901
1386.14001 0.944203
1386.41003 0.943441
1386.67004 0.942681
1386.93005 0.941921
1387.18994 0.941161
1387.44995 0.940398
1387.70996 0.939637
1387.96997 0.938876
1388.23999 0.938243
1388.50000 0.937621
1388.76001 0.937
1389.02002 0.936369
1389.28003 0.935605
1389.54004 0.934846
1389.81006 0.934085
1390.06995 0.933475
1390.32996 0.933304
1390.58997 0.933133
1390.84998 0.932961
1391.12000 0.932851
1391.38000 0.93282
1391.64001 0.932788
1391.90002 0.932755
1392.16003 0.932632
1392.43005 0.932456
1392.68994 0.93228
1392.94995 0.932101
1393.20996 0.931923
1393.47998 0.931744
1393.73999 0.931564
1394.00000 0.931384
1394.27002 0.931346
1394.53003 0.931307
1394.79004 0.931267
1395.05005 0.931197
1395.31995 0.931013
1395.57996 0.930827
1395.83997 0.930641
1396.10999 0.930455
1396.37000 0.930268
1396.63000 0.930079
1396.89001 0.929891
1397.16003 0.929788
1397.42004 0.929741
1397.68005 0.929694
1397.94995 0.929647
1398.20996 0.929483
1398.46997 0.92929
1398.73999 0.929095
1399.00000 0.9289
1399.27002 0.928705
1399.53003 0.928508
1399.79004 0.928311
1400.06006 0.928086
1400.31995 0.927769
1400.58997 0.927451
1400.84998 0.927133
1401.10999 0.926751
1401.38000 0.926289
1401.64001 0.925824
1401.91003 0.925357
1402.17004 0.924984
1402.43005 0.924663
1402.69995 0.924342
1402.95996 0.924023
1403.22998 0.923521
1403.48999 0.92299
1403.76001 0.922459
1404.02002 0.921927
1404.29004 0.921395
1404.55005 0.920862
1404.81006 0.92033
1405.07996 0.919839
1405.33997 0.919452
1405.60999 0.919064
1405.87000 0.918676
1406.14001 0.918211
1406.40002 0.917677
1406.67004 0.917139
1406.93005 0.916602
1407.19995 0.916065
1407.45996 0.915528
1407.72998 0.914991
1407.98999 0.914453
1408.26001 0.914058
1408.52002 0.913666
1408.79004 0.913273
1409.06006 0.912851
1409.31995 0.912309
1409.58997 0.91177
1409.84998 0.911228
1410.12000 0.910684
1410.38000 0.910137
1410.65002 0.909588
1410.92004 0.909041
1411.18005 0.908594
1411.44995 0.908192
1411.70996 0.907791
1411.97998 0.90739
1412.23999 0.906852
1412.51001 0.9063
1412.78003 0.905749
1413.04004 0.905198
1413.31006 0.904647
1413.57996 0.904096
1413.83997 0.903543
1414.10999 0.90305
1414.38000 0.902644
1414.64001 0.902239
1414.91003 0.901835
1415.17004 0.901331
1415.43994 0.900775
1415.70996 0.90022
1415.97998 0.899664
1416.23999 0.899105
1416.51001 0.89855
1416.78003 0.897993
1417.04004 0.897459
1417.31006 0.897049
1417.57996 0.89664
1417.84998 0.896231
1418.10999 0.895757
1418.38000 0.895197
1418.65002 0.894639
1418.91003 0.894076
1419.18005 0.893616
1419.44995 0.893204
1419.71997 0.892792
1419.97998 0.892379
1420.25000 0.89182
1420.52002 0.891252
1420.79004 0.890682
1421.06006 0.890108
1421.31995 0.889538
1421.58997 0.888967
1421.85999 0.888395
1422.13000 0.887894
1422.39001 0.887473
1422.66003 0.88705
1422.93005 0.886627
1423.19995 0.886092
1423.46997 0.885519
1423.72998 0.884944
1424.00000 0.884368
1424.27002 0.883793
1424.54004 0.883217
1424.81006 0.882639
1425.07996 0.882106
1425.34998 0.881681
1425.60999 0.881255
1425.88000 0.880825
1426.15002 0.880314
1426.42004 0.879735
1426.68994 0.879154
1426.95996 0.878576
1427.22998 0.877996
1427.50000 0.877414
1427.77002 0.876833
1428.03003 0.876271
1428.30005 0.87584
1428.56995 0.875409
1428.83997 0.874978
1429.10999 0.874485
1429.38000 0.873901
1429.65002 0.873315
1429.92004 0.872731
1430.18994 0.872247
1430.45996 0.871806
1430.72998 0.871365
1431.00000 0.870924
1431.27002 0.87033
1431.54004 0.869736
1431.81006 0.869142
1432.07996 0.868547
1432.34998 0.867952
1432.62000 0.867355
1432.88000 0.866759
1433.16003 0.866249
1433.43005 0.865803
1433.69995 0.865358
1433.96997 0.864915
1434.23999 0.864334
1434.51001 0.863735
1434.78003 0.863136
1435.05005 0.862563
1435.31995 0.862114
1435.58997 0.861667
1435.85999 0.861219
1436.13000 0.860697
1436.40002 0.860094
1436.67004 0.859492
1436.93994 0.858887
1437.20996 0.858285
1437.47998 0.857682
1437.75000 0.857078
1438.03003 0.856486
1438.30005 0.856035
1438.56995 0.855582
1438.83997 0.85513
1439.10999 0.854616
1439.38000 0.854009
1439.65002 0.853402
1439.92004 0.852793
1440.18994 0.85229
1440.46997 0.851825
1440.73999 0.851364
1441.01001 0.850895
1441.28003 0.850276
1441.55005 0.849658
1441.81995 0.849037
1442.09998 0.848472
1442.37000 0.848007
1442.64001 0.847541
1442.91003 0.847075
1443.18005 0.846506
1443.44995 0.845882
1443.72998 0.845259
1444.00000 0.844636
1444.27002 0.844014
1444.54004 0.843392
1444.81995 0.842767
1445.08997 0.842192
1445.35999 0.841723
1445.63000 0.841251
1445.90002 0.840781
1446.18005 0.840211
1446.44995 0.839585
1446.71997 0.838956
1446.98999 0.838329
1447.27002 0.837854
1447.54004 0.837381
1447.81006 0.836908
1448.08997 0.836387
1448.35999 0.835757
1448.63000 0.835126
1448.90002 0.834496
1449.18005 0.833865
1449.44995 0.833234
1449.71997 0.832601
1450.00000 0.831971
1450.27002 0.831279
1450.54004 0.830581
1450.81995 0.829887
1451.08997 0.829142
1451.37000 0.828289
1451.64001 0.827441
1451.91003 0.826591
1452.18005 0.825846
1452.45996 0.825149
1452.72998 0.824456
1453.01001 0.823758
1453.28003 0.822905
1453.55005 0.822054
1453.82996 0.821203
1454.09998 0.82041
1454.38000 0.819714
1454.65002 0.819019
1454.92004 0.818324
1455.19995 0.817517
1455.46997 0.816663
1455.75000 0.815811
1456.02002 0.814972
1456.30005 0.814274
1456.56995 0.813579
1456.83997 0.812886
1457.12000 0.812124
1457.39001 0.81127
1457.67004 0.810417
1457.93994 0.809565
1458.21997 0.808832
1458.48999 0.808139
1458.77002 0.807443
1459.04004 0.806724
1459.31995 0.805869
1459.58997 0.805016
1459.87000 0.804163
1460.14001 0.803384
1460.42004 0.802677
1460.68994 0.801971
1460.96997 0.801264
1461.23999 0.800417
1461.52002 0.799553
1461.79004 0.798689
1462.06995 0.797862
1462.33997 0.797158
1462.62000 0.796451
1462.89001 0.795744
1463.17004 0.794935
1463.44995 0.794071
1463.71997 0.793207
1464.00000 0.792343
1464.27002 0.791478
1464.55005 0.790614
1464.82996 0.789747
1465.09998 0.788941
1465.38000 0.788232
1465.65002 0.787526
1465.93005 0.786819
1466.20996 0.785991
1466.47998 0.785127
1466.76001 0.784262
1467.04004 0.783415
1467.31006 0.782708
1467.58997 0.782002
1467.87000 0.781294
1468.14001 0.780501
1468.42004 0.779635
1468.69995 0.77877
1468.96997 0.777902
1469.25000 0.777181
1469.53003 0.776473
1469.80005 0.775763
1470.07996 0.775006
1470.35999 0.774126
1470.63000 0.773249
1470.91003 0.772372
1471.18994 0.771602
1471.46997 0.770882
1471.73999 0.77016
1472.02002 0.769428
1472.30005 0.768551
1472.57996 0.767673
1472.84998 0.766793
1473.13000 0.76599
1473.41003 0.76527
1473.68994 0.764548
1473.95996 0.763827
1474.23999 0.76297
1474.52002 0.762093
1474.80005 0.761215
1475.06995 0.760379
1475.34998 0.759657
1475.63000 0.758937
1475.91003 0.758214
1476.18994 0.757388
1476.45996 0.756512
1476.73999 0.755632
1477.02002 0.754766
1477.30005 0.754045
1477.57996 0.753325
1477.85999 0.752602
1478.13000 0.751805
1478.41003 0.750927
1478.68994 0.750046
1478.96997 0.749167
1479.25000 0.748431
1479.53003 0.747708
1479.81006 0.746987
1480.08997 0.746263
1480.37000 0.745529
1480.64001 0.744795
1480.92004 0.744061
1481.19995 0.743213
1481.47998 0.742322
1481.76001 0.741428
1482.04004 0.740562
1482.31995 0.739829
1482.59998 0.739094
1482.88000 0.73836
1483.16003 0.737535
1483.43994 0.736646
1483.71997 0.735753
1484.00000 0.734862
1484.28003 0.734126
1484.56006 0.733391
1484.83997 0.732657
1485.12000 0.731859
1485.39001 0.730968
1485.67004 0.730074
1485.94995 0.729183
1486.22998 0.728424
1486.52002 0.727689
1486.80005 0.726955
1487.07996 0.726179
1487.35999 0.725291
1487.64001 0.724397
1487.92004 0.723505
1488.19995 0.722722
1488.47998 0.721987
1488.76001 0.721253
1489.04004 0.720522
1489.31995 0.719789
1489.59998 0.719054
1489.88000 0.71832
1490.16003 0.717489
1490.43994 0.716581
1490.71997 0.715676
1491.00000 0.714772
1491.28003 0.714025
1491.56995 0.713276
1491.84998 0.712529
1492.13000 0.71171
1492.41003 0.710805
1492.68994 0.709897
1492.96997 0.708995
1493.25000 0.708229
1493.54004 0.707481
1493.81995 0.706733
1494.09998 0.705932
1494.38000 0.705024
1494.66003 0.704122
1494.93994 0.703217
1495.21997 0.702438
1495.51001 0.701687
1495.79004 0.70094
1496.06995 0.700154
1496.34998 0.699249
1496.63000 0.698345
1496.91003 0.69744
1497.19995 0.696646
1497.47998 0.695897
1497.76001 0.695151
1498.04004 0.694404
1498.32996 0.693658
1498.60999 0.692909
1498.89001 0.692163
1499.17004 0.691319
1499.45996 0.690412
1499.73999 0.689508
1500.02002 0.688621
1500.30005 0.687931
1500.58997 0.687237
1500.87000 0.686547
1501.15002 0.685771
1501.43994 0.684919
1501.71997 0.684073
1502.00000 0.683224
1502.28003 0.682533
1502.56995 0.681841
1502.84998 0.68115
1503.13000 0.680458
1503.42004 0.679765
1503.69995 0.679074
1503.97998 0.678382
1504.27002 0.677542
1504.55005 0.67669
1504.82996 0.67584
1505.12000 0.675055
1505.40002 0.674362
1505.68005 0.673672
1505.96997 0.672978
1506.25000 0.672284
1506.54004 0.671593
1506.81995 0.6709
1507.09998 0.67015
1507.39001 0.669299
1507.67004 0.668448
1507.95996 0.667597
1508.23999 0.666878
1508.53003 0.666185
1508.81006 0.66549
1509.08997 0.664748
1509.38000 0.663896
1509.66003 0.663042
1509.94995 0.66219
1510.22998 0.661459
1510.52002 0.660754
1510.80005 0.66005
1511.08997 0.659347
1511.37000 0.658641
1511.65002 0.657938
1511.93994 0.657234
1512.21997 0.656405
1512.51001 0.65554
1512.79004 0.65468
1513.07996 0.653861
1513.37000 0.653155
1513.65002 0.652451
1513.93005 0.651745
1514.21997 0.651041
1514.51001 0.650337
1514.79004 0.649633
1515.07996 0.648886
1515.35999 0.648022
1515.65002 0.647156
1515.93005 0.646293
1516.21997 0.645551
1516.51001 0.644845
1516.79004 0.64414
1517.07996 0.643393
1517.35999 0.642527
1517.65002 0.641662
1517.93005 0.640799
1518.21997 0.640057
1518.51001 0.639352
1518.79004 0.638647
1519.07996 0.63794
1519.37000 0.637235
1519.65002 0.636528
1519.93994 0.635823
1520.21997 0.634989
1520.51001 0.634115
1520.80005 0.633244
1521.07996 0.632418
1521.37000 0.631701
1521.66003 0.630989
1521.93994 0.630278
1522.22998 0.629565
1522.52002 0.628851
1522.80005 0.628138
1523.08997 0.627374
1523.38000 0.626499
1523.67004 0.625627
1523.94995 0.624755
1524.23999 0.624015
1524.53003 0.6233
1524.81995 0.622588
1525.09998 0.621874
1525.39001 0.621161
1525.68005 0.620446
1525.95996 0.619735
1526.25000 0.618882
1526.54004 0.618004
1526.82996 0.617131
1527.12000 0.616322
1527.40002 0.615609
1527.68994 0.614895
1527.97998 0.614182
1528.27002 0.613469
1528.55005 0.612753
1528.83997 0.612039
1529.13000 0.611254
1529.42004 0.610381
1529.70996 0.609504
1529.98999 0.608631
1530.28003 0.607911
1530.56995 0.60719
1530.85999 0.606472
1531.15002 0.605755
1531.43994 0.605038
1531.72998 0.604316
1532.02002 0.603598
1532.30005 0.60288
1532.58997 0.60216
1532.88000 0.601441
1533.17004 0.600632
1533.45996 0.599754
1533.75000 0.598873
1534.04004 0.598015
1534.32996 0.597297
1534.62000 0.596576
1534.90002 0.595858
1535.18994 0.59514
1535.47998 0.594419
1535.77002 0.5937
1536.06006 0.592948
1536.34998 0.59207
1536.64001 0.591191
1536.93005 0.59031
1537.21997 0.589553
1537.51001 0.588835
1537.80005 0.588114
1538.08997 0.587396
1538.38000 0.586677
1538.67004 0.585956
1538.95996 0.585239
1539.25000 0.584521
1539.54004 0.583802
1539.82996 0.583081
1540.12000 0.582294
1540.41003 0.581414
1540.69995 0.580537
1540.98999 0.579654
1541.28003 0.578928
1541.56995 0.578208
1541.85999 0.577486
1542.15002 0.576764
1542.43994 0.576046
1542.72998 0.575326
1543.02002 0.57459
1543.31006 0.57371
1543.60999 0.57283
1543.90002 0.571947
1544.18994 0.57117
1544.47998 0.570452
1544.77002 0.569732
1545.06006 0.56901
1545.34998 0.568287
1545.64001 0.567567
1545.93005 0.566847
1546.21997 0.566126
1546.52002 0.565406
1546.81006 0.564684
1547.09998 0.563909
1547.39001 0.563026
1547.68005 0.562145
1547.96997 0.561267
1548.27002 0.56053
1548.56006 0.55981
1548.84998 0.55909
1549.14001 0.558368
1549.43005 0.557647
1549.71997 0.556926
1550.02002 0.556211
1550.31006 0.555602
1550.59998 0.554989
1550.89001 0.554375
1551.18994 0.553663
1551.47998 0.552888
1551.77002 0.552115
1552.06006 0.551376
1552.35999 0.550763
1552.65002 0.550148
1552.93994 0.549534
1553.22998 0.548918
1553.53003 0.548304
1553.81995 0.547691
1554.10999 0.547065
1554.40002 0.546416
1554.69995 0.545768
1554.98999 0.54512
1555.28003 0.54447
1555.57996 0.543822
1555.87000 0.543174
1556.16003 0.542523
1556.45996 0.541874
1556.75000 0.541224
1557.04004 0.540573
1557.33997 0.539923
1557.63000 0.539272
1557.92004 0.538622
1558.21997 0.537983
1558.51001 0.537346
1558.81006 0.536711
1559.09998 0.53607
1559.39001 0.535416
1559.68994 0.534766
1559.97998 0.534113
1560.27002 0.533465
1560.56995 0.532814
1560.85999 0.532165
1561.16003 0.531514
1561.44995 0.530864
1561.73999 0.530214
1562.04004 0.529564
1562.32996 0.528912
1562.63000 0.528262
1562.92004 0.527611
1563.21997 0.52696
1563.51001 0.526306
1563.81006 0.525654
1564.09998 0.525008
1564.39001 0.524372
1564.68994 0.523734
1564.97998 0.523097
1565.28003 0.522446
1565.57996 0.521792
1565.87000 0.521138
1566.16003 0.520484
1566.45996 0.519825
1566.76001 0.519171
1567.05005 0.518518
1567.34998 0.517862
1567.64001 0.517205
1567.93994 0.51655
1568.22998 0.515894
1568.53003 0.515235
1568.81995 0.514579
1569.12000 0.513922
1569.41003 0.513265
1569.70996 0.512608
1570.01001 0.511948
1570.30005 0.511314
1570.59998 0.510679
1570.89001 0.510042
1571.18994 0.509398
1571.47998 0.508746
1571.78003 0.50809
1572.07996 0.507438
1572.38000 0.506785
1572.67004 0.50613
1572.96997 0.505478
1573.26001 0.504824
1573.56006 0.504171
1573.85999 0.503514
1574.15002 0.502858
1574.44995 0.502203
1574.75000 0.501548
1575.04004 0.500897
1575.33997 0.500274
1575.64001 0.499651
1575.93005 0.499027
1576.22998 0.498388
1576.53003 0.497748
1576.82996 0.497107
1577.12000 0.496464
1577.42004 0.495823
1577.71997 0.495181
1578.02002 0.494538
1578.31006 0.493913
1578.60999 0.493288
1578.91003 0.492662
1579.19995 0.492022
1579.50000 0.491377
1579.80005 0.490733
1580.09998 0.490098
1580.39001 0.48948
1580.68994 0.488861
1580.98999 0.48824
1581.29004 0.487607
1581.58997 0.486969
1581.88000 0.486333
1582.18005 0.485696
1582.47998 0.485058
1582.78003 0.48442
1583.07996 0.483787
1583.38000 0.483164
1583.67004 0.482543
1583.96997 0.481921
1584.27002 0.481282
1584.56995 0.480643
1584.87000 0.480004
1585.17004 0.479364
1585.45996 0.478724
1585.77002 0.478083
1586.06006 0.477445
1586.35999 0.476822
1586.66003 0.476197
1586.95996 0.475572
1587.26001 0.474933
1587.56006 0.474289
1587.85999 0.473645
1588.16003 0.473013
1588.44995 0.472387
1588.76001 0.471759
1589.05005 0.471129
1589.34998 0.470486
1589.65002 0.46984
1589.94995 0.469195
1590.25000 0.468561
1590.55005 0.467926
1590.84998 0.467292
1591.15002 0.466667
1591.44995 0.46605
1591.75000 0.46543
1592.05005 0.464809
1592.34998 0.464176
1592.65002 0.463541
1592.94995 0.462903
1593.25000 0.462281
1593.55005 0.46166
1593.84998 0.461038
1594.15002 0.460411
1594.44995 0.459774
1594.75000 0.459137
1595.05005 0.458497
1595.35999 0.457857
1595.65002 0.45722
1595.95996 0.45658
1596.26001 0.455955
1596.56006 0.455332
1596.85999 0.454709
1597.16003 0.454075
1597.45996 0.453435
1597.76001 0.452794
1598.06006 0.452157
1598.35999 0.451532
1598.66003 0.450907
1598.96997 0.45028
1599.27002 0.449638
1599.56995 0.448996
1599.87000 0.448355
1600.17004 0.447695
1600.46997 0.44702
1600.78003 0.446345
1601.07996 0.44567
1601.38000 0.444996
1601.68005 0.444324
1601.97998 0.443651
1602.28003 0.442975
1602.58997 0.442301
1602.89001 0.441628
1603.18994 0.440952
1603.48999 0.44028
1603.79004 0.439603
1604.09998 0.438931
1604.40002 0.438255
1604.69995 0.437578
1605.00000 0.436903
1605.31006 0.436229
1605.60999 0.435552
1605.91003 0.434879
1606.20996 0.434192
1606.52002 0.433496
1606.81995 0.432804
1607.12000 0.432119
1607.43005 0.431441
1607.72998 0.430768
1608.03003 0.430092
1608.32996 0.429421
1608.64001 0.428749
1608.93994 0.428078
1609.23999 0.427406
1609.55005 0.426733
1609.84998 0.426063
1610.15002 0.425398
1610.45996 0.424742
1610.76001 0.424086
1611.06006 0.423428
1611.37000 0.422771
1611.67004 0.422115
1611.96997 0.421456
1612.28003 0.4208
1612.57996 0.420143
1612.89001 0.419484
1613.18994 0.418826
1613.48999 0.418171
1613.80005 0.417513
1614.09998 0.416853
1614.41003 0.416195
1614.70996 0.415537
1615.02002 0.414877
1615.31995 0.414219
1615.62000 0.41356
1615.93005 0.412902
1616.22998 0.412243
1616.54004 0.411582
1616.83997 0.410923
1617.15002 0.410264
1617.44995 0.409602
1617.76001 0.408943
1618.06006 0.408279
1618.37000 0.407601
1618.67004 0.406924
1618.97998 0.406247
1619.28003 0.405585
1619.58997 0.404924
1619.89001 0.404264
1620.19995 0.403614
1620.50000 0.402969
1620.81006 0.402324
1621.10999 0.40168
1621.42004 0.401038
1621.71997 0.400392
1622.03003 0.399748
1622.33997 0.399103
1622.64001 0.398457
1622.94995 0.39781
1623.25000 0.397166
1623.56006 0.396521
1623.87000 0.395874
1624.17004 0.395228
1624.47998 0.394582
1624.78003 0.393934
1625.08997 0.393298
1625.39001 0.392685
1625.69995 0.392074
1626.01001 0.39146
1626.31006 0.390845
1626.62000 0.390232
1626.93005 0.389618
1627.22998 0.388989
1627.54004 0.38836
1627.84998 0.387729
1628.15002 0.387105
1628.45996 0.386489
1628.77002 0.385874
1629.06995 0.385261
1629.38000 0.384644
1629.68994 0.384029
1629.98999 0.383414
1630.30005 0.382816
1630.60999 0.382219
1630.92004 0.381622
1631.21997 0.381011
1631.53003 0.380398
1631.83997 0.379782
1632.15002 0.379175
1632.44995 0.378577
1632.76001 0.377977
1633.06995 0.377378
1633.38000 0.376779
1633.68005 0.376181
1633.98999 0.375579
1634.30005 0.37498
1634.60999 0.374378
1634.92004 0.373778
1635.21997 0.37318
1635.53003 0.372579
1635.83997 0.371977
1636.15002 0.371368
1636.45996 0.370749
1636.77002 0.370129
1637.07996 0.369514
1637.38000 0.368912
1637.68994 0.368308
1638.00000 0.367707
1638.31006 0.367103
1638.62000 0.366499
1638.93005 0.365897
1639.23999 0.365292
1639.55005 0.364688
1639.84998 0.364085
1640.16003 0.36348
1640.46997 0.362879
1640.78003 0.362277
1641.08997 0.361678
1641.40002 0.361094
1641.70996 0.360509
1642.02002 0.359923
1642.32996 0.359335
1642.64001 0.358749
1642.94995 0.35816
1643.26001 0.357573
1643.56995 0.356986
1643.88000 0.356398
1644.18994 0.355808
1644.50000 0.35522
1644.81006 0.354631
1645.12000 0.354036
1645.42004 0.35343
1645.73999 0.352821
1646.05005 0.352216
1646.35999 0.351626
1646.67004 0.351034
1646.97998 0.350443
1647.29004 0.349854
1647.59998 0.349263
1647.91003 0.348669
1648.21997 0.348077
1648.53003 0.347483
1648.83997 0.346889
1649.15002 0.346298
1649.45996 0.345705
1649.77002 0.34511
1650.07996 0.344529
1650.39001 0.343984
1650.69995 0.343438
1651.02002 0.342894
1651.32996 0.342365
1651.64001 0.341837
1651.94995 0.341307
1652.26001 0.340777
1652.56995 0.340247
1652.88000 0.339716
1653.18994 0.339184
1653.51001 0.338655
1653.81995 0.338123
1654.13000 0.33759
1654.43994 0.337056
1654.75000 0.336524
1655.06995 0.335991
1655.38000 0.335458
1655.68994 0.334924
1656.00000 0.33439
1656.31006 0.333854
1656.63000 0.333317
1656.93994 0.332782
1657.25000 0.332248
1657.56006 0.331711
1657.87000 0.331174
1658.18994 0.330637
1658.50000 0.3301
1658.81006 0.329561
1659.12000 0.329023
1659.43994 0.328485
1659.75000 0.327946
1660.06006 0.327409
1660.38000 0.326889
1660.68994 0.326366
1661.00000 0.325845
1661.31006 0.325325
1661.63000 0.324802
1661.93994 0.324278
1662.25000 0.323754
1662.56995 0.32323
1662.88000 0.322706
1663.18994 0.322181
1663.51001 0.321657
1663.81995 0.321131
1664.13000 0.320605
1664.44995 0.320077
1664.76001 0.319551
1665.06995 0.319023
1665.39001 0.318494
1665.69995 0.317966
1666.02002 0.317438
1666.32996 0.316907
1666.64001 0.316377
1666.95996 0.315847
1667.27002 0.315316
1667.58997 0.314786
1667.90002 0.314253
1668.20996 0.313721
1668.53003 0.313189
1668.84998 0.312655
1669.16003 0.312122
1669.46997 0.311589
1669.79004 0.311056
1670.09998 0.310525
1670.42004 0.310006
1670.72998 0.309487
1671.05005 0.308966
1671.35999 0.308445
1671.68005 0.307924
1671.98999 0.307401
1672.31006 0.306879
1672.62000 0.306357
1672.93994 0.305832
1673.25000 0.305308
1673.56995 0.304784
1673.88000 0.304258
1674.19995 0.303735
1674.51001 0.303207
1674.82996 0.302681
1675.14001 0.30218
1675.45996 0.301705
1675.78003 0.301233
1676.08997 0.300753
1676.41003 0.30026
1676.71997 0.299767
1677.04004 0.299275
1677.35999 0.298798
1677.67004 0.298323
1677.98999 0.297846
1678.30005 0.297351
1678.62000 0.296854
1678.93994 0.296357
1679.25000 0.295874
1679.56995 0.295395
1679.89001 0.294915
1680.19995 0.294443
1680.52002 0.293976
1680.83997 0.293507
1681.15002 0.29303
1681.46997 0.292542
1681.79004 0.292055
1682.09998 0.291573
1682.42004 0.291102
1682.73999 0.29063
1683.06006 0.290153
1683.37000 0.289663
1683.68994 0.289173
1684.01001 0.288682
1684.31995 0.288207
1684.64001 0.287733
1684.95996 0.287257
1685.28003 0.286764
1685.58997 0.286271
1685.91003 0.285777
1686.22998 0.285295
1686.55005 0.284816
1686.87000 0.284338
1687.18005 0.28386
1687.50000 0.283379
1687.81995 0.282899
1688.14001 0.282413
1688.44995 0.281912
1688.77002 0.281411
1689.08997 0.280917
1689.41003 0.280435
1689.72998 0.27995
1690.05005 0.279467
1690.37000 0.278976
1690.68005 0.278481
1691.00000 0.277989
1691.31995 0.277514
1691.64001 0.277039
1691.95996 0.276563
1692.28003 0.276071
1692.59998 0.275575
1692.92004 0.275078
1693.22998 0.274595
1693.55005 0.274116
1693.87000 0.273637
1694.18994 0.273157
1694.51001 0.272675
1694.82996 0.272194
1695.15002 0.271704
1695.46997 0.271202
1695.79004 0.2707
1696.10999 0.270206
1696.43005 0.269719
1696.75000 0.269235
1697.06995 0.268746
1697.39001 0.26824
1697.70996 0.267736
1698.03003 0.267232
1698.34998 0.266745
1698.67004 0.266256
1698.98999 0.265767
1699.31006 0.26526
1699.63000 0.264749
1699.94995 0.264242
1700.27002 0.263796
1700.58997 0.263364
1700.91003 0.262931
1701.22998 0.262483
1701.55005 0.26203
1701.87000 0.261577
1702.18994 0.261133
1702.51001 0.260697
1702.82996 0.260261
1703.15002 0.259815
1703.46997 0.259358
1703.80005 0.258902
1704.12000 0.258443
1704.43994 0.257987
1704.76001 0.257528
1705.07996 0.257074
1705.40002 0.256632
1705.71997 0.25619
1706.05005 0.255746
1706.37000 0.255286
1706.68994 0.254824
1707.01001 0.254361
1707.32996 0.253917
1707.65002 0.253473
1707.97998 0.253026
1708.30005 0.252564
1708.62000 0.252099
1708.93994 0.251632
1709.26001 0.251165
1709.58997 0.250699
1709.91003 0.25023
1710.22998 0.24978
1710.55005 0.249338
1710.87000 0.248897
1711.19995 0.24844
1711.52002 0.247975
1711.83997 0.247511
1712.16003 0.247057
1712.48999 0.24661
1712.81006 0.246165
1713.13000 0.24571
1713.44995 0.245241
1713.78003 0.244772
1714.09998 0.244304
1714.42004 0.243836
1714.75000 0.243366
1715.06995 0.2429
1715.39001 0.242449
1715.71997 0.241996
1716.04004 0.241542
1716.35999 0.241069
1716.68994 0.240596
1717.01001 0.240123
1717.32996 0.239667
1717.66003 0.239212
1717.97998 0.238754
1718.31006 0.23828
1718.63000 0.237803
1718.94995 0.237327
1719.28003 0.236864
1719.59998 0.236404
1719.92004 0.235945
1720.25000 0.235472
1720.56995 0.234997
1720.90002 0.234522
1721.21997 0.234046
1721.55005 0.233567
1721.87000 0.23309
1722.18994 0.232623
1722.52002 0.232162
1722.83997 0.231702
1723.17004 0.231231
1723.48999 0.230751
1723.81995 0.230267
1724.14001 0.229794
1724.46997 0.229331
1724.79004 0.228867
1725.12000 0.228416
1725.43994 0.227991
1725.77002 0.227565
1726.08997 0.227138
1726.42004 0.226711
1726.73999 0.226283
1727.06995 0.225854
1727.39001 0.225426
1727.71997 0.224997
1728.05005 0.224567
1728.37000 0.224136
1728.69995 0.223705
1729.02002 0.223275
1729.34998 0.222861
1729.67004 0.222449
1730.00000 0.222036
1730.32996 0.221604
1730.65002 0.221174
1730.97998 0.220741
1731.31006 0.220309
1731.63000 0.219877
1731.95996 0.219442
1732.28003 0.219008
1732.60999 0.218573
1732.93994 0.218137
1733.26001 0.217701
1733.58997 0.217266
1733.92004 0.216829
1734.23999 0.216405
1734.56995 0.215987
1734.90002 0.215569
1735.21997 0.215134
1735.55005 0.214694
1735.88000 0.214254
1736.20996 0.213811
1736.53003 0.213369
1736.85999 0.212927
1737.18994 0.212482
1737.51001 0.21204
1737.83997 0.211594
1738.17004 0.21116
1738.50000 0.210735
1738.82996 0.210308
1739.15002 0.209872
1739.47998 0.209425
1739.81006 0.208975
1740.13000 0.208529
1740.45996 0.208082
1740.79004 0.207634
1741.12000 0.207183
1741.44995 0.206734
1741.78003 0.206285
1742.09998 0.205835
1742.43005 0.205384
1742.76001 0.204932
1743.08997 0.204485
1743.42004 0.204052
1743.75000 0.203619
1744.06995 0.203182
1744.40002 0.202728
1744.72998 0.202271
1745.06006 0.201815
1745.39001 0.201359
1745.71997 0.2009
1746.05005 0.200443
1746.38000 0.199984
1746.69995 0.199526
1747.04004 0.199064
1747.35999 0.198604
1747.68994 0.198143
1748.02002 0.197681
1748.34998 0.19724
1748.68005 0.196799
1749.01001 0.196355
1749.33997 0.195889
1749.67004 0.195424
1750.00000 0.194959
1750.32996 0.194677
1750.66003 0.194397
1750.98999 0.194115
1751.31995 0.193853
1751.65002 0.193591
1751.97998 0.193328
1752.31006 0.193066
1752.64001 0.192802
1752.96997 0.192538
1753.30005 0.192255
1753.63000 0.191968
1753.95996 0.191682
1754.29004 0.191414
1754.62000 0.191148
1754.94995 0.190881
1755.29004 0.190614
1755.62000 0.190346
1755.94995 0.190078
1756.28003 0.189791
1756.60999 0.189501
1756.93994 0.189211
1757.27002 0.188938
1757.59998 0.188667
1757.93005 0.188396
1758.26001 0.188107
1758.59998 0.187814
1758.93005 0.18752
1759.26001 0.187242
1759.58997 0.186968
1759.92004 0.186695
1760.25000 0.186421
1760.58997 0.186147
1760.92004 0.185872
1761.25000 0.185581
1761.57996 0.185284
1761.91003 0.184987
1762.23999 0.184704
1762.57996 0.184427
1762.91003 0.18415
1763.23999 0.183856
1763.56995 0.183557
1763.90002 0.183256
1764.23999 0.182971
1764.56995 0.18269
1764.90002 0.182409
1765.23999 0.182128
1765.56995 0.181848
1765.90002 0.181566
1766.22998 0.181268
1766.56995 0.180963
1766.90002 0.180658
1767.22998 0.180367
1767.56995 0.180083
1767.90002 0.179799
1768.22998 0.179498
1768.56006 0.17919
1768.90002 0.178882
1769.22998 0.178588
1769.56006 0.178301
1769.90002 0.178013
1770.22998 0.177726
1770.56006 0.177437
1770.90002 0.177148
1771.22998 0.176843
1771.56995 0.176531
1771.90002 0.17622
1772.22998 0.175923
1772.56995 0.175631
1772.90002 0.175339
1773.23999 0.175046
1773.56995 0.174754
1773.90002 0.174461
1774.23999 0.174151
1774.56995 0.173835
1774.91003 0.173517
1775.23999 0.173264
1775.57996 0.173036
1775.91003 0.172807
1776.25000 0.17256
1776.57996 0.172308
1776.91003 0.172055
1777.25000 0.171818
1777.58997 0.171586
1777.92004 0.171355
1778.26001 0.171122
1778.58997 0.17089
1778.92004 0.170657
1779.26001 0.170406
1779.59998 0.170149
1779.93005 0.169892
1780.27002 0.169654
1780.59998 0.16942
1780.93994 0.169185
1781.27002 0.168931
1781.60999 0.168673
1781.93994 0.168413
1782.28003 0.168173
1782.62000 0.167936
1782.94995 0.167699
1783.29004 0.167441
1783.62000 0.16718
1783.95996 0.166919
1784.30005 0.166677
1784.63000 0.166437
1784.96997 0.166197
1785.31006 0.165957
1785.64001 0.165716
1785.97998 0.165474
1786.31995 0.165211
1786.65002 0.164946
1786.98999 0.16468
1787.32996 0.164437
1787.66003 0.164193
1788.00000 0.163949
1788.33997 0.163682
1788.67004 0.163414
1789.01001 0.163147
1789.34998 0.162901
1789.68005 0.162655
1790.02002 0.162408
1790.35999 0.162161
1790.69995 0.161915
1791.03003 0.161665
1791.37000 0.161394
1791.70996 0.161123
1792.05005 0.160854
1792.38000 0.160605
1792.71997 0.160355
1793.06006 0.160101
1793.40002 0.159828
1793.73999 0.159554
1794.06995 0.159285
1794.41003 0.159033
1794.75000 0.15878
1795.08997 0.158527
1795.43005 0.158274
1795.76001 0.158022
1796.09998 0.157761
1796.43994 0.157483
1796.78003 0.157204
1797.12000 0.156934
1797.45996 0.156678
1797.80005 0.156421
1798.13000 0.156156
1798.46997 0.155874
1798.81006 0.155593
1799.15002 0.155322
1799.48999 0.155063
1799.82996 0.154805
1800.17004 0.154557
1800.51001 0.154321
1800.84998 0.154084
1801.18994 0.153847
1801.53003 0.153609
1801.87000 0.153371
1802.20996 0.153132
1802.55005 0.152894
1802.88000 0.152655
1803.21997 0.1524
1803.56995 0.152134
1803.90002 0.15187
1804.25000 0.151621
1804.57996 0.151381
1804.92004 0.151139
1805.26001 0.150897
1805.60999 0.150654
1805.93994 0.150411
1806.29004 0.150167
1806.62000 0.149923
1806.96997 0.149679
1807.31006 0.149434
1807.65002 0.149189
1807.98999 0.148943
1808.32996 0.148696
1808.67004 0.14845
1809.01001 0.148204
1809.34998 0.147956
1809.68994 0.147707
1810.03003 0.147459
1810.38000 0.14721
1810.71997 0.146962
1811.06006 0.14671
1811.40002 0.146436
1811.73999 0.146161
1812.07996 0.145892
1812.42004 0.145642
1812.76001 0.145391
1813.10999 0.145138
1813.44995 0.144886
1813.79004 0.144634
1814.13000 0.14438
1814.46997 0.144127
1814.81006 0.143873
1815.16003 0.143619
1815.50000 0.143364
1815.83997 0.143109
1816.18005 0.142853
1816.53003 0.142596
1816.87000 0.14234
1817.20996 0.142083
1817.55005 0.141826
1817.89001 0.141568
1818.23999 0.14131
1818.57996 0.141051
1818.92004 0.140792
1819.27002 0.140513
1819.60999 0.140228
1819.94995 0.139943
1820.29004 0.139678
1820.64001 0.139418
1820.97998 0.139156
1821.31995 0.138895
1821.67004 0.138632
1822.01001 0.138369
1822.34998 0.138106
1822.69995 0.137841
1823.04004 0.137578
1823.38000 0.137313
1823.72998 0.137047
1824.06995 0.136782
1824.41003 0.136516
1824.76001 0.136251
1825.09998 0.135991
1825.44995 0.135749
1825.79004 0.135506
1826.13000 0.135263
1826.47998 0.135019
1826.81995 0.134776
1827.17004 0.134531
1827.51001 0.134287
1827.85999 0.134041
1828.19995 0.133796
1828.54004 0.13355
1828.89001 0.133303
1829.22998 0.133056
1829.57996 0.132809
1829.92004 0.132561
1830.27002 0.132313
1830.60999 0.132065
1830.95996 0.131816
1831.30005 0.131568
1831.65002 0.131319
1831.98999 0.131069
1832.33997 0.130818
1832.68005 0.130567
1833.03003 0.130316
1833.38000 0.130064
1833.71997 0.129812
1834.06995 0.12956
1834.41003 0.129307
1834.76001 0.129053
1835.09998 0.128799
1835.44995 0.128546
1835.79004 0.128291
1836.14001 0.128036
1836.48999 0.127781
1836.82996 0.127525
1837.18005 0.127268
1837.53003 0.127011
1837.87000 0.126754
1838.21997 0.126497
1838.56995 0.126238
1838.91003 0.12598
1839.26001 0.125721
1839.59998 0.125462
1839.94995 0.125201
1840.30005 0.124942
1840.64001 0.124681
1840.98999 0.12442
1841.33997 0.124159
1841.68005 0.123897
1842.03003 0.123634
1842.38000 0.123373
1842.72998 0.12311
1843.06995 0.122846
1843.42004 0.122582
1843.77002 0.122318
1844.12000 0.122053
1844.45996 0.121787
1844.81006 0.121522
1845.16003 0.121256
1845.51001 0.120989
1845.84998 0.120722
1846.19995 0.120454
1846.55005 0.120186
1846.90002 0.119918
1847.25000 0.119649
1847.58997 0.11938
1847.93994 0.11911
1848.29004 0.118839
1848.64001 0.118569
1848.98999 0.118298
1849.33997 0.118026
1849.68005 0.117754
1850.03003 0.117484
1850.38000 0.117227
1850.72998 0.11697
1851.07996 0.116713
1851.43005 0.116456
1851.78003 0.116198
1852.12000 0.11594
1852.46997 0.115681
1852.81995 0.115422
1853.17004 0.115162
1853.52002 0.114903
1853.87000 0.114643
1854.21997 0.114383
1854.56995 0.114121
1854.92004 0.11386
1855.27002 0.113599
1855.62000 0.113336
1855.96997 0.113075
1856.31995 0.112812
1856.67004 0.112549
1857.02002 0.112285
1857.37000 0.112021
1857.71997 0.111757
1858.06995 0.111492
1858.42004 0.111227
1858.77002 0.110962
1859.12000 0.110696
1859.46997 0.11043
1859.81995 0.110162
1860.17004 0.109896
1860.52002 0.10963
1860.87000 0.109361
1861.21997 0.109094
1861.56995 0.108826
1861.92004 0.108556
1862.27002 0.108288
1862.62000 0.108019
1862.96997 0.107749
1863.32996 0.107479
1863.68005 0.107207
1864.03003 0.106936
1864.38000 0.106665
1864.72998 0.106394
1865.07996 0.106122
1865.43005 0.105849
1865.79004 0.105576
1866.14001 0.105302
1866.48999 0.105029
1866.83997 0.104755
1867.18994 0.10448
1867.55005 0.104205
1867.90002 0.103931
1868.25000 0.103635
1868.59998 0.103331
1868.94995 0.103027
1869.31006 0.102746
1869.66003 0.10247
1870.01001 0.102191
1870.35999 0.101913
1870.70996 0.101635
1871.06995 0.101356
1871.42004 0.101077
1871.77002 0.100798
1872.12000 0.100519
1872.47998 0.100238
1872.82996 0.0999573
1873.18005 0.0996755
1873.54004 0.0993943
1873.89001 0.0991126
1874.23999 0.0988305
1874.59998 0.0985481
1874.94995 0.0982652
1875.30005 0.0980059
1875.66003 0.0977495
1876.01001 0.0974936
1876.35999 0.0972372
1876.71997 0.0969797
1877.06995 0.0967226
1877.42004 0.0964651
1877.78003 0.0962066
1878.13000 0.0959378
1878.48999 0.095651
1878.83997 0.0953639
1879.18994 0.095091
1879.55005 0.0948313
1879.90002 0.0945712
1880.26001 0.0943109
1880.60999 0.0940495
1880.95996 0.0937892
1881.31995 0.0935278
1881.67004 0.0932652
1882.03003 0.0930031
1882.38000 0.0927406
1882.73999 0.0924777
1883.08997 0.0922061
1883.44995 0.091914
1883.80005 0.0916215
1884.16003 0.0913404
1884.51001 0.0910756
1884.87000 0.0908105
1885.21997 0.0905449
1885.57996 0.0902781
1885.93005 0.0900118
1886.29004 0.0897452
1886.65002 0.0894774
1887.00000 0.0892099
1887.35999 0.0889421
1887.70996 0.0886747
1888.06995 0.0883998
1888.42004 0.0881022
1888.78003 0.087804
1889.13000 0.0875155
1889.48999 0.0872446
1889.84998 0.0869749
1890.19995 0.086704
1890.56006 0.0864321
1890.92004 0.0861606
1891.27002 0.0858887
1891.63000 0.0856156
1891.97998 0.0853429
1892.33997 0.0850421
1892.69995 0.0847387
1893.06006 0.0844403
1893.41003 0.0841661
1893.77002 0.0838914
1894.12000 0.0836164
1894.47998 0.0833403
1894.83997 0.0830653
1895.19995 0.0827883
1895.55005 0.0825117
1895.91003 0.0822339
1896.27002 0.0819479
1896.63000 0.0816576
1896.97998 0.0813685
1897.33997 0.0810839
1897.69995 0.0807992
1898.06006 0.0805132
1898.41003 0.0802267
1898.77002 0.0799408
1899.13000 0.0796544
1899.48999 0.0793677
1899.83997 0.0790806
1900.19995 0.0788045
1900.56006 0.0785389
1900.92004 0.0782713
1901.28003 0.0780065
1901.63000 0.0777419
1901.98999 0.0774768
1902.34998 0.0772077
1902.70996 0.0769389
1903.06995 0.0766696
1903.43005 0.076403
1903.79004 0.0761367
1904.14001 0.0758681
1904.50000 0.0755966
1904.85999 0.0753245
1905.21997 0.0750521
1905.57996 0.0747809
1905.93994 0.0745085
1906.30005 0.0742381
1906.66003 0.0739671
1907.02002 0.0736963
1907.38000 0.0734223
1907.73999 0.0731469
1908.09998 0.0728737
1908.45996 0.0726007
1908.81995 0.072328
1909.17004 0.0720534
1909.54004 0.0717761
1909.89001 0.0714992
1910.25000 0.071224
1910.62000 0.0709485
1910.96997 0.0706743
1911.33997 0.0703952
1911.69995 0.0701154
1912.06006 0.0698361
1912.42004 0.0695564
1912.78003 0.0692762
1913.14001 0.0689968
1913.50000 0.0687189
1913.85999 0.0684405
1914.21997 0.0681591
1914.57996 0.0678768
1914.93994 0.0675941
1915.30005 0.0673136
1915.66003 0.0670324
1916.02002 0.0667513
1916.38000 0.066467
1916.73999 0.0661822
1917.10999 0.0658963
1917.46997 0.0656106
1917.82996 0.0653246
1918.18994 0.065039
1918.55005 0.0647553
1918.91003 0.064471
1919.27002 0.0641841
1919.64001 0.0638951
1920.00000 0.0636066
1920.35999 0.0633215
1920.71997 0.0630345
1921.07996 0.0627471
1921.43994 0.0624569
1921.81006 0.0621655
1922.17004 0.0618751
1922.53003 0.0615876
1922.89001 0.0612988
1923.26001 0.0610066
1923.62000 0.0607138
1923.97998 0.0604207
1924.33997 0.06013
1924.70996 0.0598383
1925.06995 0.0595493
1925.43005 0.05927
1925.80005 0.0589894
1926.16003 0.0587094
1926.52002 0.0584288
1926.88000 0.0581478
1927.25000 0.0578685
1927.60999 0.0575899
1927.96997 0.0573109
1928.33997 0.0570277
1928.69995 0.0567438
1929.06006 0.056461
1929.43005 0.0561803
1929.79004 0.0558992
1930.15002 0.0556163
1930.52002 0.0553312
1930.88000 0.0550442
1931.25000 0.0547583
1931.60999 0.0544729
1931.96997 0.0541862
1932.33997 0.0539011
1932.69995 0.0536168
1933.06995 0.0533314
1933.43005 0.0530422
1933.80005 0.0527534
1934.16003 0.0524656
1934.52002 0.05218
1934.89001 0.0518923
1935.25000 0.051602
1935.62000 0.0513111
1935.97998 0.0510198
1936.34998 0.0507302
1936.70996 0.0504422
1937.07996 0.0501513
1937.43994 0.0498574
1937.81006 0.049564
1938.17004 0.0492702
1938.54004 0.0489751
1938.90002 0.0486813
1939.27002 0.0483886
1939.63000 0.0480963
1940.00000 0.0478027
1940.37000 0.0475063
1940.72998 0.0472095
1941.09998 0.0469124
1941.45996 0.046618
1941.82996 0.0463231
1942.18994 0.0460253
1942.56006 0.0457273
1942.93005 0.0454271
1943.29004 0.0451299
1943.66003 0.0448329
1944.03003 0.0445345
1944.39001 0.0442334
1944.76001 0.0439319
1945.12000 0.0436292
1945.48999 0.0433268
1945.85999 0.0430249
1946.21997 0.0427237
1946.58997 0.0424224
1946.95996 0.0421216
1947.31995 0.0418175
1947.68994 0.0415117
1948.06006 0.0412068
1948.43005 0.0409043
1948.79004 0.0406013
1949.16003 0.0402971
1949.53003 0.0399932
1949.90002 0.0396881
1950.26001 0.0393885
1950.63000 0.0390885
1951.00000 0.038789
1951.37000 0.0384922
1951.72998 0.0381943
1952.09998 0.0378967
1952.46997 0.0375988
1952.83997 0.0372996
1953.19995 0.0370016
1953.56995 0.0367025
1953.93994 0.0364029
1954.31006 0.036102
1954.68005 0.0358016
1955.05005 0.0355008
1955.41003 0.0351987
1955.78003 0.0348971
1956.15002 0.0345949
1956.52002 0.0342916
1956.89001 0.0339878
1957.26001 0.0336844
1957.63000 0.0333816
1958.00000 0.0330765
1958.35999 0.0327719
1958.72998 0.0324669
1959.09998 0.0321606
1959.46997 0.0318505
1959.83997 0.0315409
1960.20996 0.0312327
1960.57996 0.0309265
1960.94995 0.0306181
1961.31995 0.030309
1961.68994 0.0299992
1962.06006 0.0296882
1962.43005 0.0293767
1962.80005 0.0290668
1963.17004 0.0287545
1963.54004 0.0284418
1963.91003 0.0281297
1964.28003 0.0278172
1964.65002 0.0275043
1965.02002 0.027191
1965.39001 0.0268774
1965.76001 0.0265633
1966.13000 0.0262478
1966.50000 0.0259329
1966.87000 0.0256177
1967.23999 0.025301
1967.60999 0.0249858
1967.97998 0.0246693
1968.34998 0.0243515
1968.71997 0.0240343
1969.09998 0.0237157
1969.46997 0.0233975
1969.83997 0.0230791
1970.20996 0.0227592
1970.57996 0.0224398
1970.94995 0.0221201
1971.31995 0.0217962
1971.68994 0.0214722
1972.06995 0.0211494
1972.43994 0.0208281
1972.81006 0.0205055
1973.18005 0.0201824
1973.55005 0.0198607
1973.92004 0.0195369
1974.30005 0.019219
1974.67004 0.0189022
1975.04004 0.0185908
1975.41003 0.0183283
1975.79004 0.0180647
1976.16003 0.0178022
1976.53003 0.0175421
1976.90002 0.0172817
1977.28003 0.017021
1977.65002 0.0167599
1978.02002 0.016498
1978.39001 0.016239
1978.77002 0.0159811
1979.14001 0.0157202
1979.51001 0.0154582
1979.88000 0.0151945
1980.26001 0.0149319
1980.63000 0.0146674
1981.00000 0.0144035
1981.38000 0.0141426
1981.75000 0.0138806
1982.12000 0.013618
1982.50000 0.0133526
1982.87000 0.0130862
1983.23999 0.0128225
1983.62000 0.012559
1983.98999 0.0122958
1984.37000 0.0120297
1984.73999 0.0117615
1985.12000 0.0114932
1985.48999 0.0112259
1985.85999 0.0109568
1986.23999 0.0106904
1986.60999 0.0104249
1986.97998 0.01016
1987.35999 0.00988962
1987.72998 0.00961963
1988.10999 0.00934977
1988.47998 0.00907974
1988.85999 0.00881014
1989.22998 0.00854026
1989.60999 0.0082692
1989.97998 0.00799866
1990.35999 0.00772741
1990.72998 0.00745506
1991.10999 0.00718403
1991.47998 0.00691129
1991.85999 0.00663826
1992.22998 0.00636645
1992.60999 0.00609268
1992.97998 0.00581942
1993.35999 0.00554587
1993.73999 0.00527115
1994.10999 0.00499755
1994.48999 0.0047218
1994.85999 0.0044473
1995.23999 0.00417103
1995.62000 0.0038946
1995.98999 0.00361789
1996.37000 0.00334232
1996.73999 0.00306576
1997.12000 0.00278678
2196.83203 0.0
