# %ECSV 0.9
# ---
# datatype:
# - {name: wavelength, unit: Angstrom, datatype: float32}
# - {name: response, datatype: float32}
# meta: !!omap
# - {band_name: PR130L}
# - {group_name: ACS_SBC}
wavelength response
1094.40002 0.0
1216.00000 0.00758782
1216.22998 0.00788576
1216.45996 0.00818528
1216.68994 0.0084848
1216.92004 0.00878415
1217.15002 0.00908515
1217.38000 0.00938656
1217.60999 0.0096879
1217.82996 0.00998966
1218.06006 0.0106214
1218.29004 0.012093
1218.52002 0.0135715
1218.75000 0.0150535
1218.97998 0.0165432
1219.20996 0.0180324
1219.43994 0.0195197
1219.67004 0.0210093
1219.90002 0.0225011
1220.13000 0.0240852
1220.35999 0.0257407
1220.58997 0.0274043
1220.81995 0.0290673
1221.05005 0.0307325
1221.28003 0.0324016
1221.51001 0.0340692
1221.73999 0.0357408
1221.96997 0.0374155
1222.19995 0.0389662
1222.43005 0.0404981
1222.66003 0.0420328
1222.89001 0.0435704
1223.12000 0.0451107
1223.34998 0.0466595
1223.58997 0.0482063
1223.81995 0.0497607
1224.05005 0.0517386
1224.28003 0.0553973
1224.51001 0.0590744
1224.73999 0.0627679
1224.96997 0.0664604
1225.19995 0.0701393
1225.43005 0.0738435
1225.66003 0.0775209
1225.89001 0.0812146
1226.12000 0.0867735
1226.35999 0.0939884
1226.58997 0.101192
1226.81995 0.108406
1227.05005 0.11565
1227.28003 0.122892
1227.51001 0.130143
1227.73999 0.137406
1227.96997 0.144698
1228.19995 0.168006
1228.43994 0.193392
1228.67004 0.218822
1228.90002 0.244298
1229.13000 0.269789
1229.35999 0.295296
1229.59998 0.32099
1229.82996 0.346549
1230.06006 0.366872
1230.29004 0.371384
1230.52002 0.375889
1230.75000 0.380401
1230.97998 0.384914
1231.21997 0.389411
1231.44995 0.393895
1231.68005 0.398385
1231.91003 0.402892
1232.15002 0.407415
1232.38000 0.411959
1232.60999 0.416508
1232.83997 0.421075
1233.07996 0.425635
1233.31006 0.430187
1233.54004 0.43477
1233.77002 0.43936
1234.00000 0.443938
1234.23999 0.448479
1234.46997 0.453035
1234.69995 0.45757
1234.93005 0.462123
1235.17004 0.466726
1235.40002 0.471337
1235.63000 0.475952
1235.87000 0.480586
1236.09998 0.485188
1236.32996 0.489769
1236.56006 0.494352
1236.80005 0.498956
1237.03003 0.503556
1237.26001 0.508204
1237.50000 0.512859
1237.72998 0.517531
1237.95996 0.522197
1238.19995 0.526868
1238.43005 0.531555
1238.66003 0.536237
1238.90002 0.540923
1239.13000 0.545583
1239.35999 0.550223
1239.59998 0.554865
1239.82996 0.559515
1240.06995 0.56419
1240.30005 0.568831
1240.53003 0.573475
1240.77002 0.578111
1241.00000 0.582779
1241.22998 0.587375
1241.46997 0.591975
1241.69995 0.596581
1241.93994 0.6012
1242.17004 0.605855
1242.40002 0.61053
1242.64001 0.615224
1242.87000 0.619908
1243.10999 0.624598
1243.33997 0.629303
1243.57996 0.634
1243.81006 0.638687
1244.04004 0.64338
1244.28003 0.648048
1244.51001 0.652694
1244.75000 0.65734
1244.97998 0.661992
1245.21997 0.666709
1245.44995 0.671436
1245.68005 0.67617
1245.92004 0.680918
1246.15002 0.685658
1246.39001 0.690404
1246.62000 0.69515
1246.85999 0.699917
1247.08997 0.704645
1247.32996 0.709332
1247.56995 0.714033
1247.80005 0.718727
1248.04004 0.723435
1248.27002 0.728209
1248.51001 0.732989
1248.73999 0.737787
1248.97998 0.742573
1249.20996 0.74731
1249.44995 0.752027
1249.68005 0.756746
1249.92004 0.761457
1250.15002 0.764073
1250.39001 0.765535
1250.62000 0.766998
1250.85999 0.76847
1251.09998 0.769933
1251.32996 0.771393
1251.56995 0.772858
1251.80005 0.774328
1252.04004 0.775781
1252.28003 0.777166
1252.51001 0.778555
1252.75000 0.779941
1252.97998 0.781327
1253.21997 0.782789
1253.45996 0.784263
1253.68994 0.785732
1253.93005 0.787202
1254.16003 0.788619
1254.40002 0.790003
1254.64001 0.791392
1254.87000 0.792781
1255.10999 0.794216
1255.34998 0.79569
1255.57996 0.797163
1255.81995 0.798638
1256.06006 0.800113
1256.29004 0.801588
1256.53003 0.803064
1256.77002 0.804544
1257.00000 0.806021
1257.23999 0.807413
1257.47998 0.80881
1257.70996 0.810203
1257.94995 0.811596
1258.18994 0.813058
1258.43005 0.814543
1258.66003 0.816023
1258.90002 0.817505
1259.14001 0.818937
1259.37000 0.820336
1259.60999 0.821731
1259.84998 0.823127
1260.08997 0.824533
1260.31995 0.825943
1260.56006 0.827349
1260.80005 0.82876
1261.04004 0.830176
1261.27002 0.831587
1261.51001 0.833003
1261.75000 0.83442
1261.98999 0.835828
1262.21997 0.837157
1262.45996 0.838484
1262.69995 0.839808
1262.93994 0.841132
1263.18005 0.842523
1263.41003 0.84394
1263.65002 0.845354
1263.89001 0.846769
1264.13000 0.848135
1264.37000 0.849463
1264.60999 0.850787
1264.83997 0.852111
1265.07996 0.853471
1265.31995 0.854882
1265.56006 0.856299
1265.80005 0.85772
1266.04004 0.85914
1266.28003 0.860557
1266.51001 0.861976
1266.75000 0.863393
1266.98999 0.864812
1267.22998 0.86614
1267.46997 0.867465
1267.70996 0.868794
1267.94995 0.870124
1268.18005 0.871518
1268.42004 0.872941
1268.66003 0.874361
1268.90002 0.875781
1269.14001 0.877146
1269.38000 0.878475
1269.62000 0.879801
1269.85999 0.881122
1270.09998 0.882471
1270.33997 0.883834
1270.57996 0.885198
1270.81995 0.886561
1271.06006 0.887929
1271.30005 0.889289
1271.54004 0.890654
1271.78003 0.892022
1272.01001 0.89338
1272.25000 0.89465
1272.48999 0.895917
1272.72998 0.897185
1272.96997 0.89845
1273.20996 0.899804
1273.44995 0.901172
1273.68994 0.902537
1273.93005 0.903901
1274.17004 0.905195
1274.41003 0.906464
1274.65002 0.907729
1274.89001 0.908995
1275.13000 0.910264
1275.38000 0.911528
1275.62000 0.912793
1275.85999 0.914057
1276.09998 0.915321
1276.33997 0.916585
1276.57996 0.917852
1276.81995 0.919115
1277.06006 0.920382
1277.30005 0.921645
1277.54004 0.922904
1277.78003 0.92417
1278.02002 0.925432
1278.26001 0.926694
1278.50000 0.927955
1278.73999 0.929224
1278.97998 0.930481
1279.21997 0.931742
1279.46997 0.933007
1279.70996 0.934267
1279.94995 0.935527
1280.18994 0.936369
1280.43005 0.937094
1280.67004 0.937818
1280.91003 0.938545
1281.16003 0.939338
1281.40002 0.940166
1281.64001 0.940993
1281.88000 0.94182
1282.12000 0.942647
1282.35999 0.943473
1282.59998 0.9443
1282.84998 0.945128
1283.08997 0.945956
1283.32996 0.946782
1283.56995 0.947604
1283.81006 0.948431
1284.06006 0.949256
1284.30005 0.95008
1284.54004 0.950906
1284.78003 0.951729
1285.02002 0.952542
1285.27002 0.953258
1285.51001 0.953976
1285.75000 0.954691
1285.98999 0.955405
1286.22998 0.956225
1286.47998 0.957046
1286.71997 0.957867
1286.95996 0.958684
1287.19995 0.959506
1287.44995 0.960329
1287.68994 0.961147
1287.93005 0.961968
1288.18005 0.962787
1288.42004 0.963603
1288.66003 0.96442
1288.90002 0.965241
1289.15002 0.966058
1289.39001 0.966875
1289.63000 0.967694
1289.88000 0.96851
1290.12000 0.969262
1290.35999 0.969946
1290.60999 0.970632
1290.84998 0.971315
1291.08997 0.972039
1291.32996 0.972832
1291.57996 0.973626
1291.81995 0.974417
1292.06995 0.975209
1292.31006 0.976002
1292.55005 0.976793
1292.80005 0.977583
1293.04004 0.978375
1293.28003 0.979162
1293.53003 0.979951
1293.77002 0.98074
1294.01001 0.98153
1294.26001 0.98232
1294.50000 0.983108
1294.75000 0.983895
1294.98999 0.984682
1295.22998 0.985468
1295.47998 0.986254
1295.71997 0.987042
1295.96997 0.987827
1296.20996 0.988514
1296.44995 0.989184
1296.69995 0.989857
1296.93994 0.990526
1297.18994 0.991283
1297.43005 0.992068
1297.68005 0.992849
1297.92004 0.993629
1298.16003 0.99441
1298.41003 0.995193
1298.65002 0.995975
1298.90002 0.996755
1299.14001 0.997537
1299.39001 0.998314
1299.63000 0.999093
1299.88000 0.999872
1300.12000 1.0
1300.37000 0.999493
1300.62000 0.998984
1300.85999 0.998476
1301.09998 0.997968
1301.34998 0.99746
1301.59998 0.996952
1301.83997 0.996442
1302.08997 0.995934
1302.32996 0.995426
1302.57996 0.994916
1302.81995 0.994408
1303.06995 0.99393
1303.31006 0.993537
1303.56006 0.993143
1303.80005 0.992749
1304.05005 0.992333
1304.30005 0.991823
1304.54004 0.991313
1304.79004 0.990804
1305.03003 0.990292
1305.28003 0.989781
1305.53003 0.989271
1305.77002 0.988762
1306.02002 0.98825
1306.26001 0.98774
1306.51001 0.987229
1306.76001 0.986718
1307.00000 0.986206
1307.25000 0.985695
1307.48999 0.985184
1307.73999 0.984671
1307.98999 0.98416
1308.22998 0.983759
1308.47998 0.983363
1308.72998 0.982966
1308.96997 0.982572
1309.21997 0.982074
1309.46997 0.98156
1309.70996 0.981045
1309.95996 0.980534
1310.20996 0.980026
1310.44995 0.979518
1310.69995 0.979011
1310.94995 0.978503
1311.18994 0.977996
1311.43994 0.977486
1311.68994 0.976978
1311.93994 0.97647
1312.18005 0.97596
1312.43005 0.975452
1312.68005 0.974943
1312.93005 0.974433
1313.17004 0.974007
1313.42004 0.973615
1313.67004 0.973222
1313.92004 0.97283
1314.16003 0.972359
1314.41003 0.971849
1314.66003 0.97134
1314.91003 0.970829
1315.15002 0.970319
1315.40002 0.969811
1315.65002 0.969299
1315.90002 0.968789
1316.15002 0.968279
1316.39001 0.967766
1316.64001 0.967255
1316.89001 0.966746
1317.14001 0.966235
1317.39001 0.965723
1317.63000 0.965212
1317.88000 0.9647
1318.13000 0.96425
1318.38000 0.963855
1318.63000 0.963461
1318.88000 0.963067
1319.13000 0.962611
1319.37000 0.962099
1319.62000 0.961587
1319.87000 0.961075
1320.12000 0.960761
1320.37000 0.960661
1320.62000 0.960561
1320.87000 0.960459
1321.12000 0.960358
1321.37000 0.960257
1321.60999 0.960155
1321.85999 0.960052
1322.10999 0.959949
1322.35999 0.959846
1322.60999 0.959743
1322.85999 0.959639
1323.10999 0.959587
1323.35999 0.9596
1323.60999 0.959614
1323.85999 0.959628
1324.10999 0.95959
1324.35999 0.959485
1324.60999 0.959378
1324.85999 0.959273
1325.09998 0.959117
1325.35999 0.958891
1325.59998 0.958664
1325.84998 0.958438
1326.09998 0.95826
1326.34998 0.958152
1326.59998 0.958043
1326.84998 0.957934
1327.09998 0.957824
1327.34998 0.957714
1327.59998 0.957604
1327.85999 0.957493
1328.09998 0.957383
1328.34998 0.957272
1328.59998 0.95716
1328.85999 0.957048
1329.10999 0.956886
1329.35999 0.956653
1329.60999 0.95642
1329.85999 0.956187
1330.10999 0.956006
1330.35999 0.955894
1330.60999 0.955782
1330.85999 0.95567
1331.10999 0.955557
1331.35999 0.955444
1331.60999 0.955331
1331.85999 0.955217
1332.10999 0.955103
1332.37000 0.954988
1332.62000 0.954873
1332.87000 0.954759
1333.12000 0.954643
1333.37000 0.954528
1333.62000 0.954411
1333.87000 0.954295
1334.12000 0.954118
1334.38000 0.953879
1334.63000 0.953641
1334.88000 0.953402
1335.13000 0.953224
1335.38000 0.953105
1335.63000 0.952986
1335.88000 0.952866
1336.14001 0.952747
1336.39001 0.952627
1336.64001 0.952506
1336.89001 0.952384
1337.14001 0.952263
1337.40002 0.952142
1337.65002 0.95202
1337.90002 0.951898
1338.15002 0.951702
1338.40002 0.951456
1338.66003 0.95121
1338.91003 0.950964
1339.16003 0.950795
1339.41003 0.95067
1339.67004 0.950545
1339.92004 0.95042
1340.17004 0.950294
1340.42004 0.950168
1340.68005 0.950042
1340.93005 0.949915
1341.18005 0.949788
1341.43005 0.94966
1341.68994 0.949533
1341.93994 0.949405
1342.18994 0.949182
1342.44995 0.94893
1342.69995 0.948677
1342.94995 0.948424
1343.19995 0.94827
1343.45996 0.948139
1343.70996 0.948008
1343.95996 0.947877
1344.21997 0.947745
1344.46997 0.947613
1344.71997 0.947481
1344.97998 0.947349
1345.22998 0.947216
1345.47998 0.947082
1345.73999 0.946948
1345.98999 0.946814
1346.23999 0.946559
1346.50000 0.946299
1346.75000 0.94604
1347.01001 0.945783
1347.26001 0.945646
1347.52002 0.94551
1347.77002 0.945373
1348.02002 0.945236
1348.28003 0.945098
1348.53003 0.94496
1348.79004 0.944821
1349.04004 0.944683
1349.29004 0.944544
1349.55005 0.944404
1349.80005 0.944264
1350.06006 0.944091
1350.31006 0.943803
1350.56995 0.943515
1350.81995 0.943229
1351.06995 0.942975
1351.32996 0.942812
1351.57996 0.942648
1351.83997 0.942484
1352.08997 0.942274
1352.34998 0.941982
1352.59998 0.941691
1352.85999 0.941399
1353.10999 0.941162
1353.37000 0.940995
1353.62000 0.940828
1353.88000 0.940661
1354.13000 0.940428
1354.39001 0.940134
1354.64001 0.939838
1354.90002 0.939542
1355.15002 0.939322
1355.41003 0.939152
1355.66003 0.938982
1355.92004 0.938812
1356.17004 0.938555
1356.43005 0.938256
1356.68994 0.937957
1356.93994 0.937658
1357.19995 0.937358
1357.44995 0.937058
1357.70996 0.936757
1357.95996 0.936456
1358.21997 0.936264
1358.47998 0.93609
1358.72998 0.935915
1358.98999 0.935741
1359.25000 0.935442
1359.50000 0.935138
1359.76001 0.934834
1360.01001 0.934535
1360.27002 0.934358
1360.53003 0.934181
1360.78003 0.934002
1361.04004 0.933804
1361.30005 0.933497
1361.55005 0.93319
1361.81006 0.93288
1362.06995 0.932604
1362.31995 0.932424
1362.57996 0.932243
1362.83997 0.932061
1363.08997 0.931833
1363.34998 0.931522
1363.60999 0.93121
1363.85999 0.930898
1364.12000 0.930646
1364.38000 0.930463
1364.63000 0.930278
1364.89001 0.930094
1365.15002 0.929834
1365.41003 0.929519
1365.66003 0.929203
1365.92004 0.928888
1366.18005 0.928661
1366.43005 0.928474
1366.68994 0.928287
1366.94995 0.928099
1367.20996 0.927806
1367.46997 0.927488
1367.71997 0.927168
1367.97998 0.926849
1368.23999 0.926649
1368.50000 0.926459
1368.76001 0.926268
1369.01001 0.926072
1369.27002 0.925749
1369.53003 0.925427
1369.79004 0.925105
1370.05005 0.924803
1370.30005 0.924609
1370.56006 0.924416
1370.81995 0.924221
1371.07996 0.923987
1371.33997 0.92366
1371.59998 0.923333
1371.84998 0.923005
1372.10999 0.922734
1372.37000 0.922538
1372.63000 0.92234
1372.89001 0.922143
1373.15002 0.92187
1373.41003 0.92154
1373.66003 0.921208
1373.92004 0.920877
1374.18005 0.920639
1374.43994 0.920438
1374.69995 0.920238
1374.95996 0.920037
1375.21997 0.919724
1375.47998 0.919389
1375.73999 0.919055
1376.00000 0.91872
1376.26001 0.918383
1376.52002 0.918048
1376.77002 0.917711
1377.03003 0.917391
1377.29004 0.917185
1377.55005 0.916981
1377.81006 0.916775
1378.06995 0.916533
1378.32996 0.916193
1378.58997 0.915852
1378.84998 0.915512
1379.10999 0.915172
1379.37000 0.91483
1379.63000 0.914488
1379.89001 0.914146
1380.15002 0.913878
1380.41003 0.913666
1380.67004 0.913455
1380.93005 0.913243
1381.18994 0.912931
1381.44995 0.912584
1381.70996 0.912237
1381.96997 0.911888
1382.22998 0.91154
1382.48999 0.911191
1382.75000 0.910841
1383.01001 0.910497
1383.28003 0.910282
1383.54004 0.910065
1383.80005 0.909848
1384.06006 0.909601
1384.31995 0.90925
1384.57996 0.908897
1384.83997 0.908542
1385.09998 0.90824
1385.35999 0.908021
1385.62000 0.9078
1385.88000 0.907581
1386.14001 0.907285
1386.41003 0.906927
1386.67004 0.90657
1386.93005 0.906213
1387.18994 0.905856
1387.44995 0.905496
1387.70996 0.905137
1387.96997 0.904777
1388.23999 0.90454
1388.50000 0.904315
1388.76001 0.90409
1389.02002 0.903854
1389.28003 0.903491
1389.54004 0.90313
1389.81006 0.902767
1390.06995 0.902403
1390.32996 0.902034
1390.58997 0.901667
1390.84998 0.901299
1391.12000 0.900992
1391.38000 0.90076
1391.64001 0.900527
1391.90002 0.900294
1392.16003 0.899975
1392.43005 0.899603
1392.68994 0.899234
1392.94995 0.898861
1393.20996 0.898488
1393.47998 0.898116
1393.73999 0.897743
1394.00000 0.897369
1394.27002 0.897133
1394.53003 0.896896
1394.79004 0.896658
1395.05005 0.896391
1395.31995 0.896015
1395.57996 0.895637
1395.83997 0.89526
1396.10999 0.894883
1396.37000 0.894505
1396.63000 0.894125
1396.89001 0.893746
1397.16003 0.893448
1397.42004 0.893206
1397.68005 0.892964
1397.94995 0.892721
1398.20996 0.892367
1398.46997 0.891984
1398.73999 0.8916
1399.00000 0.891217
1399.27002 0.890833
1399.53003 0.890447
1399.79004 0.890062
1400.06006 0.889699
1400.31995 0.889419
1400.58997 0.889139
1400.84998 0.888858
1401.10999 0.888517
1401.38000 0.888097
1401.64001 0.887676
1401.91003 0.887253
1402.17004 0.886919
1402.43005 0.886636
1402.69995 0.886352
1402.95996 0.88607
1403.22998 0.885613
1403.48999 0.885128
1403.76001 0.884643
1404.02002 0.884156
1404.29004 0.88367
1404.55005 0.883183
1404.81006 0.882697
1405.07996 0.88225
1405.33997 0.881903
1405.60999 0.881555
1405.87000 0.881206
1406.14001 0.880784
1406.40002 0.880297
1406.67004 0.879805
1406.93005 0.879313
1407.19995 0.878822
1407.45996 0.878331
1407.72998 0.877839
1407.98999 0.877346
1408.26001 0.876992
1408.52002 0.87664
1408.79004 0.876287
1409.06006 0.875905
1409.31995 0.875409
1409.58997 0.874915
1409.84998 0.874419
1410.12000 0.873921
1410.38000 0.87342
1410.65002 0.872917
1410.92004 0.872415
1411.18005 0.87201
1411.44995 0.871648
1411.70996 0.871287
1411.97998 0.870925
1412.23999 0.870432
1412.51001 0.869926
1412.78003 0.869421
1413.04004 0.868916
1413.31006 0.86841
1413.57996 0.867904
1413.83997 0.867397
1414.10999 0.866948
1414.38000 0.866582
1414.64001 0.866216
1414.91003 0.865852
1415.17004 0.865391
1415.43994 0.864881
1415.70996 0.864371
1415.97998 0.863861
1416.23999 0.863347
1416.51001 0.862837
1416.78003 0.862326
1417.04004 0.861836
1417.31006 0.861466
1417.57996 0.861097
1417.84998 0.860727
1418.10999 0.860295
1418.38000 0.859781
1418.65002 0.859267
1418.91003 0.858751
1419.18005 0.858332
1419.44995 0.857959
1419.71997 0.857587
1419.97998 0.857213
1420.25000 0.856699
1420.52002 0.856176
1420.79004 0.855652
1421.06006 0.855124
1421.31995 0.854599
1421.58997 0.854074
1421.85999 0.853548
1422.13000 0.853089
1422.39001 0.852707
1422.66003 0.852324
1422.93005 0.851941
1423.19995 0.85145
1423.46997 0.850922
1423.72998 0.850392
1424.00000 0.849861
1424.27002 0.849331
1424.54004 0.848801
1424.81006 0.848269
1425.07996 0.847779
1425.34998 0.847394
1425.60999 0.847006
1425.88000 0.846617
1426.15002 0.846148
1426.42004 0.845614
1426.68994 0.845078
1426.95996 0.844545
1427.22998 0.84401
1427.50000 0.843474
1427.77002 0.842938
1428.03003 0.84242
1428.30005 0.842028
1428.56995 0.841636
1428.83997 0.841245
1429.10999 0.840793
1429.38000 0.840255
1429.65002 0.839714
1429.92004 0.839175
1430.18994 0.838732
1430.45996 0.83833
1430.72998 0.837928
1431.00000 0.837527
1431.27002 0.836979
1431.54004 0.83643
1431.81006 0.83588
1432.07996 0.835331
1432.34998 0.834781
1432.62000 0.834229
1432.88000 0.833678
1433.16003 0.83321
1433.43005 0.832803
1433.69995 0.832398
1433.96997 0.831993
1434.23999 0.831456
1434.51001 0.830903
1434.78003 0.830349
1435.05005 0.829819
1435.31995 0.82941
1435.58997 0.829002
1435.85999 0.828594
1436.13000 0.828113
1436.40002 0.827555
1436.67004 0.826998
1436.93994 0.826438
1437.20996 0.825881
1437.47998 0.825323
1437.75000 0.824763
1438.03003 0.824216
1438.30005 0.823804
1438.56995 0.82339
1438.83997 0.822977
1439.10999 0.822504
1439.38000 0.821942
1439.65002 0.82138
1439.92004 0.820815
1440.18994 0.820352
1440.46997 0.819928
1440.73999 0.819506
1441.01001 0.819076
1441.28003 0.818502
1441.55005 0.817929
1441.81995 0.817353
1442.09998 0.81683
1442.37000 0.816405
1442.64001 0.815978
1442.91003 0.815551
1443.18005 0.815024
1443.44995 0.814446
1443.72998 0.813867
1444.00000 0.81329
1444.27002 0.812711
1444.54004 0.812134
1444.81995 0.811554
1445.08997 0.811022
1445.35999 0.810592
1445.63000 0.810159
1445.90002 0.809728
1446.18005 0.809201
1446.44995 0.808619
1446.71997 0.808035
1446.98999 0.807453
1447.27002 0.807016
1447.54004 0.806582
1447.81006 0.806148
1448.08997 0.805667
1448.35999 0.805082
1448.63000 0.804495
1448.90002 0.80391
1449.18005 0.803324
1449.44995 0.802737
1449.71997 0.802148
1450.00000 0.801562
1450.27002 0.801051
1450.54004 0.800536
1450.81995 0.800025
1451.08997 0.799464
1451.37000 0.798799
1451.64001 0.798137
1451.91003 0.797474
1452.18005 0.796912
1452.45996 0.796397
1452.72998 0.795883
1453.01001 0.795366
1453.28003 0.7947
1453.55005 0.794034
1453.82996 0.793368
1454.09998 0.792758
1454.38000 0.792241
1454.65002 0.791726
1454.92004 0.79121
1455.19995 0.790585
1455.46997 0.789915
1455.75000 0.789246
1456.02002 0.78859
1456.30005 0.788071
1456.56995 0.787554
1456.83997 0.787037
1457.12000 0.786454
1457.39001 0.785782
1457.67004 0.785111
1457.93994 0.784441
1458.21997 0.783886
1458.48999 0.783368
1458.77002 0.782848
1459.04004 0.782305
1459.31995 0.781631
1459.58997 0.780958
1459.87000 0.780284
1460.14001 0.779683
1460.42004 0.779151
1460.68994 0.778619
1460.96997 0.778087
1461.23999 0.777418
1461.52002 0.776733
1461.79004 0.776047
1462.06995 0.775397
1462.33997 0.774866
1462.62000 0.774332
1462.89001 0.773797
1463.17004 0.773164
1463.44995 0.772477
1463.71997 0.771789
1464.00000 0.771101
1464.27002 0.770412
1464.55005 0.769723
1464.82996 0.769032
1465.09998 0.768399
1465.38000 0.767861
1465.65002 0.767325
1465.93005 0.766788
1466.20996 0.766134
1466.47998 0.765443
1466.76001 0.764751
1467.04004 0.764078
1467.31006 0.763539
1467.58997 0.763002
1467.87000 0.762462
1468.14001 0.761841
1468.42004 0.761147
1468.69995 0.760453
1468.96997 0.759757
1469.25000 0.759203
1469.53003 0.758662
1469.80005 0.758119
1470.07996 0.75753
1470.35999 0.756821
1470.63000 0.756113
1470.91003 0.755406
1471.18994 0.754803
1471.46997 0.754249
1471.73999 0.753693
1472.02002 0.753127
1472.30005 0.752418
1472.57996 0.751708
1472.84998 0.750996
1473.13000 0.750359
1473.41003 0.749803
1473.68994 0.749245
1473.95996 0.748688
1474.23999 0.747997
1474.52002 0.747285
1474.80005 0.746573
1475.06995 0.745902
1475.34998 0.745343
1475.63000 0.744785
1475.91003 0.744225
1476.18994 0.743562
1476.45996 0.74285
1476.73999 0.742134
1477.02002 0.741432
1477.30005 0.740872
1477.57996 0.740312
1477.85999 0.739749
1478.13000 0.739113
1478.41003 0.738398
1478.68994 0.737679
1478.96997 0.736962
1479.25000 0.736385
1479.53003 0.735821
1479.81006 0.735259
1480.08997 0.734693
1480.37000 0.734118
1480.64001 0.733541
1480.92004 0.732965
1481.19995 0.732277
1481.47998 0.731545
1481.76001 0.730811
1482.04004 0.730103
1482.31995 0.729526
1482.59998 0.728947
1482.88000 0.72837
1483.16003 0.727702
1483.43994 0.726971
1483.71997 0.726235
1484.00000 0.725501
1484.28003 0.72492
1484.56006 0.724339
1484.83997 0.72376
1485.12000 0.723117
1485.39001 0.722381
1485.67004 0.721643
1485.94995 0.720906
1486.22998 0.720301
1486.52002 0.719719
1486.80005 0.719137
1487.07996 0.718514
1487.35999 0.717779
1487.64001 0.717038
1487.92004 0.7163
1488.19995 0.715669
1488.47998 0.715085
1488.76001 0.714502
1489.04004 0.713921
1489.31995 0.713338
1489.59998 0.712753
1489.88000 0.712169
1490.16003 0.711488
1490.43994 0.710731
1490.71997 0.709976
1491.00000 0.709222
1491.28003 0.708624
1491.56995 0.708023
1491.84998 0.707424
1492.13000 0.706754
1492.41003 0.705997
1492.68994 0.705238
1492.96997 0.704483
1493.25000 0.703865
1493.54004 0.703263
1493.81995 0.702662
1494.09998 0.702006
1494.38000 0.701246
1494.66003 0.700489
1494.93994 0.69973
1495.21997 0.699096
1495.51001 0.69849
1495.79004 0.697888
1496.06995 0.697246
1496.34998 0.696486
1496.63000 0.695725
1496.91003 0.694964
1497.19995 0.694313
1497.47998 0.693708
1497.76001 0.693104
1498.04004 0.692499
1498.32996 0.691895
1498.60999 0.691289
1498.89001 0.690684
1499.17004 0.689981
1499.45996 0.689216
1499.73999 0.688452
1500.02002 0.687699
1500.30005 0.68706
1500.58997 0.686416
1500.87000 0.685776
1501.15002 0.68505
1501.43994 0.684249
1501.71997 0.683453
1502.00000 0.682653
1502.28003 0.682012
1502.56995 0.681369
1502.84998 0.680728
1503.13000 0.680086
1503.42004 0.679442
1503.69995 0.6788
1503.97998 0.678158
1504.27002 0.677367
1504.55005 0.676564
1504.82996 0.675762
1505.12000 0.675026
1505.40002 0.674382
1505.68005 0.67374
1505.96997 0.673095
1506.25000 0.672449
1506.54004 0.671806
1506.81995 0.671162
1507.09998 0.67046
1507.39001 0.669657
1507.67004 0.668853
1507.95996 0.66805
1508.23999 0.667379
1508.53003 0.666734
1508.81006 0.666086
1509.08997 0.665392
1509.38000 0.664587
1509.66003 0.66378
1509.94995 0.662975
1510.22998 0.662291
1510.52002 0.661633
1510.80005 0.660976
1511.08997 0.660319
1511.37000 0.65966
1511.65002 0.659003
1511.93994 0.658346
1512.21997 0.657563
1512.51001 0.656744
1512.79004 0.655929
1513.07996 0.655156
1513.37000 0.654497
1513.65002 0.653839
1513.93005 0.653178
1514.21997 0.65252
1514.51001 0.651861
1514.79004 0.651202
1515.07996 0.650501
1515.35999 0.649682
1515.65002 0.648861
1515.93005 0.648042
1516.21997 0.647345
1516.51001 0.646684
1516.79004 0.646024
1517.07996 0.645321
1517.35999 0.644499
1517.65002 0.643679
1517.93005 0.642859
1518.21997 0.642161
1518.51001 0.641501
1518.79004 0.64084
1519.07996 0.640177
1519.37000 0.639516
1519.65002 0.638852
1519.93994 0.638191
1520.21997 0.6374
1520.51001 0.636569
1520.80005 0.63574
1521.07996 0.634957
1521.37000 0.634284
1521.66003 0.633614
1521.93994 0.632947
1522.22998 0.632276
1522.52002 0.631605
1522.80005 0.630934
1523.08997 0.630213
1523.38000 0.62938
1523.67004 0.628549
1523.94995 0.627719
1524.23999 0.627021
1524.53003 0.626348
1524.81995 0.625677
1525.09998 0.625006
1525.39001 0.624334
1525.68005 0.623661
1525.95996 0.622992
1526.25000 0.62218
1526.54004 0.621342
1526.82996 0.62051
1527.12000 0.619741
1527.40002 0.619069
1527.68994 0.618396
1527.97998 0.617724
1528.27002 0.617051
1528.55005 0.616376
1528.83997 0.615703
1529.13000 0.614958
1529.42004 0.614123
1529.70996 0.613287
1529.98999 0.612453
1530.28003 0.611772
1530.56995 0.611092
1530.85999 0.610413
1531.15002 0.609736
1531.43994 0.609059
1531.72998 0.608376
1532.02002 0.607697
1532.30005 0.607019
1532.58997 0.606338
1532.88000 0.605658
1533.17004 0.604887
1533.45996 0.604047
1533.75000 0.603204
1534.04004 0.602383
1534.32996 0.601704
1534.62000 0.601022
1534.90002 0.600342
1535.18994 0.599662
1535.47998 0.598979
1535.77002 0.598299
1536.06006 0.597584
1536.34998 0.596742
1536.64001 0.595901
1536.93005 0.595056
1537.21997 0.594336
1537.51001 0.593655
1537.80005 0.592972
1538.08997 0.592291
1538.38000 0.591609
1538.67004 0.590926
1538.95996 0.590246
1539.25000 0.589564
1539.54004 0.588882
1539.82996 0.588198
1540.12000 0.587447
1540.41003 0.586602
1540.69995 0.585759
1540.98999 0.584912
1541.28003 0.584222
1541.56995 0.583538
1541.85999 0.582852
1542.15002 0.582165
1542.43994 0.581483
1542.72998 0.580798
1543.02002 0.580099
1543.31006 0.579252
1543.60999 0.578406
1543.90002 0.577556
1544.18994 0.576814
1544.47998 0.576131
1544.77002 0.575445
1545.06006 0.574758
1545.34998 0.574071
1545.64001 0.573385
1545.93005 0.572699
1546.21997 0.572013
1546.52002 0.571327
1546.81006 0.570639
1547.09998 0.569898
1547.39001 0.569047
1547.68005 0.568199
1547.96997 0.567353
1548.27002 0.566649
1548.56006 0.565962
1548.84998 0.565276
1549.14001 0.564587
1549.43005 0.5639
1549.71997 0.563212
1550.02002 0.562523
1550.31006 0.56184
1550.59998 0.561152
1550.89001 0.560464
1551.18994 0.559677
1551.47998 0.558826
1551.77002 0.557978
1552.06006 0.557164
1552.35999 0.556478
1552.65002 0.55579
1552.93994 0.555103
1553.22998 0.554414
1553.53003 0.553727
1553.81995 0.553042
1554.10999 0.552343
1554.40002 0.551621
1554.69995 0.550901
1554.98999 0.550181
1555.28003 0.549459
1555.57996 0.548739
1555.87000 0.548019
1556.16003 0.547296
1556.45996 0.546576
1556.75000 0.545856
1557.04004 0.545133
1557.33997 0.544412
1557.63000 0.543691
1557.92004 0.54297
1558.21997 0.54226
1558.51001 0.541554
1558.81006 0.540849
1559.09998 0.540138
1559.39001 0.539414
1559.68994 0.538695
1559.97998 0.537973
1560.27002 0.537255
1560.56995 0.536536
1560.85999 0.535818
1561.16003 0.535098
1561.44995 0.53438
1561.73999 0.533662
1562.04004 0.532944
1562.32996 0.532223
1562.63000 0.531505
1562.92004 0.530787
1563.21997 0.530068
1563.51001 0.529347
1563.81006 0.528628
1564.09998 0.527915
1564.39001 0.527212
1564.68994 0.526507
1564.97998 0.525805
1565.28003 0.525088
1565.57996 0.524366
1565.87000 0.523647
1566.16003 0.522927
1566.45996 0.522203
1566.76001 0.521483
1567.05005 0.520765
1567.34998 0.520045
1567.64001 0.519322
1567.93994 0.518602
1568.22998 0.517881
1568.53003 0.517159
1568.81995 0.516438
1569.12000 0.515717
1569.41003 0.514996
1569.70996 0.514275
1570.01001 0.513552
1570.30005 0.512854
1570.59998 0.512157
1570.89001 0.511456
1571.18994 0.51075
1571.47998 0.510035
1571.78003 0.509316
1572.07996 0.508601
1572.38000 0.507887
1572.67004 0.507169
1572.96997 0.506456
1573.26001 0.505741
1573.56006 0.505025
1573.85999 0.504308
1574.15002 0.50359
1574.44995 0.502874
1574.75000 0.502158
1575.04004 0.501447
1575.33997 0.500763
1575.64001 0.50008
1575.93005 0.499396
1576.22998 0.498697
1576.53003 0.497997
1576.82996 0.497296
1577.12000 0.496594
1577.42004 0.495893
1577.71997 0.495192
1578.02002 0.49449
1578.31006 0.493806
1578.60999 0.493123
1578.91003 0.492438
1579.19995 0.49174
1579.50000 0.491037
1579.80005 0.490335
1580.09998 0.489642
1580.39001 0.488966
1580.68994 0.48829
1580.98999 0.487611
1581.29004 0.486921
1581.58997 0.486226
1581.88000 0.485533
1582.18005 0.48484
1582.47998 0.484145
1582.78003 0.483451
1583.07996 0.482762
1583.38000 0.482082
1583.67004 0.481405
1583.96997 0.480727
1584.27002 0.480032
1584.56995 0.479338
1584.87000 0.478644
1585.17004 0.477949
1585.45996 0.477255
1585.77002 0.476558
1586.06006 0.475866
1586.35999 0.475188
1586.66003 0.474509
1586.95996 0.47383
1587.26001 0.473137
1587.56006 0.47244
1587.85999 0.471742
1588.16003 0.471057
1588.44995 0.470377
1588.76001 0.469695
1589.05005 0.469012
1589.34998 0.468316
1589.65002 0.467618
1589.94995 0.466921
1590.25000 0.466234
1590.55005 0.465547
1590.84998 0.464861
1591.15002 0.464185
1591.44995 0.463516
1591.75000 0.462844
1592.05005 0.462172
1592.34998 0.461488
1592.65002 0.460801
1592.94995 0.460113
1593.25000 0.45944
1593.55005 0.458768
1593.84998 0.458095
1594.15002 0.457419
1594.44995 0.456731
1594.75000 0.456044
1595.05005 0.455355
1595.35999 0.454665
1595.65002 0.453979
1595.95996 0.453289
1596.26001 0.452615
1596.56006 0.451944
1596.85999 0.451272
1597.16003 0.450589
1597.45996 0.4499
1597.76001 0.449211
1598.06006 0.448526
1598.35999 0.447853
1598.66003 0.447181
1598.96997 0.446506
1599.27002 0.445816
1599.56995 0.445126
1599.87000 0.444438
1600.17004 0.443774
1600.46997 0.443128
1600.78003 0.442481
1601.07996 0.441835
1601.38000 0.44119
1601.68005 0.440547
1601.97998 0.439901
1602.28003 0.439253
1602.58997 0.438608
1602.89001 0.437962
1603.18994 0.437315
1603.48999 0.43667
1603.79004 0.436022
1604.09998 0.435377
1604.40002 0.434729
1604.69995 0.43408
1605.00000 0.433433
1605.31006 0.432786
1605.60999 0.432137
1605.91003 0.431491
1606.20996 0.430831
1606.52002 0.430163
1606.81995 0.429498
1607.12000 0.42884
1607.43005 0.42819
1607.72998 0.427543
1608.03003 0.426895
1608.32996 0.426251
1608.64001 0.425605
1608.93994 0.424961
1609.23999 0.424316
1609.55005 0.423669
1609.84998 0.423026
1610.15002 0.422387
1610.45996 0.421758
1610.76001 0.421128
1611.06006 0.420496
1611.37000 0.419866
1611.67004 0.419236
1611.96997 0.418603
1612.28003 0.417972
1612.57996 0.417341
1612.89001 0.416708
1613.18994 0.416076
1613.48999 0.415446
1613.80005 0.414814
1614.09998 0.41418
1614.41003 0.413547
1614.70996 0.412915
1615.02002 0.41228
1615.31995 0.411647
1615.62000 0.411014
1615.93005 0.41038
1616.22998 0.409747
1616.54004 0.409111
1616.83997 0.408477
1617.15002 0.407842
1617.44995 0.407206
1617.76001 0.406571
1618.06006 0.405933
1618.37000 0.405279
1618.67004 0.404626
1618.97998 0.403974
1619.28003 0.403337
1619.58997 0.402701
1619.89001 0.402064
1620.19995 0.401439
1620.50000 0.400818
1620.81006 0.400197
1621.10999 0.399577
1621.42004 0.398959
1621.71997 0.398337
1622.03003 0.397716
1622.33997 0.397096
1622.64001 0.396473
1622.94995 0.39585
1623.25000 0.39523
1623.56006 0.394608
1623.87000 0.393984
1624.17004 0.393362
1624.47998 0.392739
1624.78003 0.392114
1625.08997 0.391501
1625.39001 0.390912
1625.69995 0.390323
1626.01001 0.389732
1626.31006 0.38914
1626.62000 0.388549
1626.93005 0.387958
1627.22998 0.387352
1627.54004 0.386746
1627.84998 0.386137
1628.15002 0.385535
1628.45996 0.384942
1628.77002 0.384349
1629.06995 0.383759
1629.38000 0.383164
1629.68994 0.382571
1629.98999 0.381978
1630.30005 0.381401
1630.60999 0.380826
1630.92004 0.380251
1631.21997 0.379662
1631.53003 0.379071
1631.83997 0.378476
1632.15002 0.377891
1632.44995 0.377314
1632.76001 0.376736
1633.06995 0.376159
1633.38000 0.375581
1633.68005 0.375004
1633.98999 0.374424
1634.30005 0.373846
1634.60999 0.373265
1634.92004 0.372687
1635.21997 0.372109
1635.53003 0.371529
1635.83997 0.370948
1636.15002 0.370359
1636.45996 0.369762
1636.77002 0.369162
1637.07996 0.368568
1637.38000 0.367987
1637.68994 0.367403
1638.00000 0.366823
1638.31006 0.366239
1638.62000 0.365655
1638.93005 0.365074
1639.23999 0.364489
1639.55005 0.363905
1639.84998 0.363322
1640.16003 0.362737
1640.46997 0.362156
1640.78003 0.361574
1641.08997 0.360995
1641.40002 0.360431
1641.70996 0.359865
1642.02002 0.359299
1642.32996 0.358731
1642.64001 0.358164
1642.94995 0.357595
1643.26001 0.357027
1643.56995 0.356459
1643.88000 0.355891
1644.18994 0.35532
1644.50000 0.354751
1644.81006 0.354181
1645.12000 0.353605
1645.42004 0.353018
1645.73999 0.352429
1646.05005 0.351843
1646.35999 0.351272
1646.67004 0.350698
1646.97998 0.350126
1647.29004 0.349556
1647.59998 0.348983
1647.91003 0.348408
1648.21997 0.347834
1648.53003 0.347259
1648.83997 0.346683
1649.15002 0.34611
1649.45996 0.345535
1649.77002 0.344959
1650.07996 0.344393
1650.39001 0.343855
1650.69995 0.343315
1651.02002 0.342777
1651.32996 0.342255
1651.64001 0.341733
1651.94995 0.34121
1652.26001 0.340685
1652.56995 0.340162
1652.88000 0.339638
1653.18994 0.339111
1653.51001 0.338588
1653.81995 0.338063
1654.13000 0.337536
1654.43994 0.337009
1654.75000 0.336482
1655.06995 0.335955
1655.38000 0.335428
1655.68994 0.334901
1656.00000 0.334373
1656.31006 0.333843
1656.63000 0.333312
1656.93994 0.332783
1657.25000 0.332255
1657.56006 0.331723
1657.87000 0.331193
1658.18994 0.330662
1658.50000 0.330131
1658.81006 0.329598
1659.12000 0.329066
1659.43994 0.328533
1659.75000 0.328
1660.06006 0.327469
1660.38000 0.326955
1660.68994 0.326438
1661.00000 0.325923
1661.31006 0.325408
1661.63000 0.324892
1661.93994 0.324373
1662.25000 0.323854
1662.56995 0.323336
1662.88000 0.322818
1663.18994 0.322299
1663.51001 0.32178
1663.81995 0.32126
1664.13000 0.32074
1664.44995 0.320217
1664.76001 0.319696
1665.06995 0.319175
1665.39001 0.318651
1665.69995 0.318128
1666.02002 0.317605
1666.32996 0.31708
1666.64001 0.316556
1666.95996 0.316031
1667.27002 0.315505
1667.58997 0.314981
1667.90002 0.314453
1668.20996 0.313927
1668.53003 0.3134
1668.84998 0.312871
1669.16003 0.312344
1669.46997 0.311815
1669.79004 0.311288
1670.09998 0.310762
1670.42004 0.310249
1670.72998 0.309735
1671.05005 0.309218
1671.35999 0.308703
1671.68005 0.308187
1671.98999 0.307669
1672.31006 0.307153
1672.62000 0.306635
1672.93994 0.306116
1673.25000 0.305597
1673.56995 0.305078
1673.88000 0.304557
1674.19995 0.304038
1674.51001 0.303516
1674.82996 0.302995
1675.14001 0.302498
1675.45996 0.302029
1675.78003 0.301562
1676.08997 0.301087
1676.41003 0.300599
1676.71997 0.300111
1677.04004 0.299623
1677.35999 0.299151
1677.67004 0.298681
1677.98999 0.298209
1678.30005 0.297719
1678.62000 0.297226
1678.93994 0.296735
1679.25000 0.296256
1679.56995 0.295781
1679.89001 0.295307
1680.19995 0.29484
1680.52002 0.294377
1680.83997 0.293913
1681.15002 0.29344
1681.46997 0.292957
1681.79004 0.292474
1682.09998 0.291997
1682.42004 0.291531
1682.73999 0.291063
1683.06006 0.290591
1683.37000 0.290105
1683.68994 0.28962
1684.01001 0.289134
1684.31995 0.288663
1684.64001 0.288193
1684.95996 0.287722
1685.28003 0.287234
1685.58997 0.286745
1685.91003 0.286255
1686.22998 0.285777
1686.55005 0.285303
1686.87000 0.284829
1687.18005 0.284355
1687.50000 0.283879
1687.81995 0.283404
1688.14001 0.282921
1688.44995 0.282425
1688.77002 0.281929
1689.08997 0.281438
1689.41003 0.28096
1689.72998 0.28048
1690.05005 0.280001
1690.37000 0.279514
1690.68005 0.279023
1691.00000 0.278535
1691.31995 0.278065
1691.64001 0.277593
1691.95996 0.277122
1692.28003 0.276633
1692.59998 0.276142
1692.92004 0.275648
1693.22998 0.275169
1693.55005 0.274695
1693.87000 0.274219
1694.18994 0.273744
1694.51001 0.273266
1694.82996 0.272789
1695.15002 0.272302
1695.46997 0.271804
1695.79004 0.271306
1696.10999 0.270816
1696.43005 0.270333
1696.75000 0.269852
1697.06995 0.269367
1697.39001 0.268865
1697.70996 0.268365
1698.03003 0.267864
1698.34998 0.267381
1698.67004 0.266895
1698.98999 0.26641
1699.31006 0.265906
1699.63000 0.2654
1699.94995 0.264896
1700.27002 0.264458
1700.58997 0.264036
1700.91003 0.263612
1701.22998 0.263174
1701.55005 0.26273
1701.87000 0.262286
1702.18994 0.261852
1702.51001 0.261425
1702.82996 0.260999
1703.15002 0.260561
1703.46997 0.260114
1703.80005 0.259666
1704.12000 0.259217
1704.43994 0.258769
1704.76001 0.25832
1705.07996 0.257874
1705.40002 0.257442
1705.71997 0.257008
1706.05005 0.256573
1706.37000 0.256122
1706.68994 0.255669
1707.01001 0.255214
1707.32996 0.254779
1707.65002 0.254344
1707.97998 0.253905
1708.30005 0.253452
1708.62000 0.252995
1708.93994 0.252537
1709.26001 0.252079
1709.58997 0.25162
1709.91003 0.25116
1710.22998 0.250719
1710.55005 0.250285
1710.87000 0.249851
1711.19995 0.249403
1711.52002 0.248947
1711.83997 0.248491
1712.16003 0.248045
1712.48999 0.247606
1712.81006 0.247169
1713.13000 0.246722
1713.44995 0.246261
1713.78003 0.2458
1714.09998 0.24534
1714.42004 0.244879
1714.75000 0.244418
1715.06995 0.24396
1715.39001 0.243516
1715.71997 0.243071
1716.04004 0.242624
1716.35999 0.242159
1716.68994 0.241694
1717.01001 0.241228
1717.32996 0.24078
1717.66003 0.240332
1717.97998 0.239882
1718.31006 0.239415
1718.63000 0.238945
1718.94995 0.238477
1719.28003 0.238021
1719.59998 0.237568
1719.92004 0.237116
1720.25000 0.236651
1720.56995 0.236183
1720.90002 0.235715
1721.21997 0.235246
1721.55005 0.234774
1721.87000 0.234303
1722.18994 0.233844
1722.52002 0.23339
1722.83997 0.232937
1723.17004 0.232473
1723.48999 0.231999
1723.81995 0.231522
1724.14001 0.231056
1724.46997 0.230599
1724.79004 0.230142
1725.12000 0.229698
1725.43994 0.22928
1725.77002 0.228861
1726.08997 0.22844
1726.42004 0.22802
1726.73999 0.227599
1727.06995 0.227176
1727.39001 0.226755
1727.71997 0.226333
1728.05005 0.225909
1728.37000 0.225484
1728.69995 0.22506
1729.02002 0.224636
1729.34998 0.224229
1729.67004 0.223823
1730.00000 0.223416
1730.32996 0.222991
1730.65002 0.222568
1730.97998 0.222141
1731.31006 0.221715
1731.63000 0.221288
1731.95996 0.22086
1732.28003 0.220432
1732.60999 0.220003
1732.93994 0.219573
1733.26001 0.219143
1733.58997 0.218714
1733.92004 0.218283
1734.23999 0.217865
1734.56995 0.217453
1734.90002 0.21704
1735.21997 0.216611
1735.55005 0.216177
1735.88000 0.215742
1736.20996 0.215305
1736.53003 0.214869
1736.85999 0.214432
1737.18994 0.213993
1737.51001 0.213556
1737.83997 0.213116
1738.17004 0.212687
1738.50000 0.212267
1738.82996 0.211846
1739.15002 0.211415
1739.47998 0.210973
1739.81006 0.210529
1740.13000 0.210088
1740.45996 0.209646
1740.79004 0.209203
1741.12000 0.208757
1741.44995 0.208313
1741.78003 0.207869
1742.09998 0.207424
1742.43005 0.206978
1742.76001 0.206531
1743.08997 0.206088
1743.42004 0.20566
1743.75000 0.205232
1744.06995 0.2048
1744.40002 0.20435
1744.72998 0.203898
1745.06006 0.203447
1745.39001 0.202995
1745.71997 0.202541
1746.05005 0.202088
1746.38000 0.201634
1746.69995 0.20118
1747.04004 0.200722
1747.35999 0.200266
1747.68994 0.199809
1748.02002 0.199352
1748.34998 0.198915
1748.68005 0.198479
1749.01001 0.198038
1749.33997 0.197577
1749.67004 0.197116
1750.00000 0.196655
1750.32996 0.196372
1750.66003 0.196091
1750.98999 0.195808
1751.31995 0.195545
1751.65002 0.195282
1751.97998 0.195019
1752.31006 0.194755
1752.64001 0.19449
1752.96997 0.194226
1753.30005 0.193941
1753.63000 0.193654
1753.95996 0.193366
1754.29004 0.193097
1754.62000 0.192831
1754.94995 0.192563
1755.29004 0.192295
1755.62000 0.192026
1755.94995 0.191757
1756.28003 0.191469
1756.60999 0.191178
1756.93994 0.190887
1757.27002 0.190612
1757.59998 0.19034
1757.93005 0.190069
1758.26001 0.189779
1758.59998 0.189484
1758.93005 0.189189
1759.26001 0.188911
1759.58997 0.188636
1759.92004 0.188361
1760.25000 0.188086
1760.58997 0.187811
1760.92004 0.187535
1761.25000 0.187243
1761.57996 0.186945
1761.91003 0.186646
1762.23999 0.186363
1762.57996 0.186085
1762.91003 0.185806
1763.23999 0.185511
1763.56995 0.185211
1763.90002 0.184909
1764.23999 0.184622
1764.56995 0.18434
1764.90002 0.184058
1765.23999 0.183776
1765.56995 0.183494
1765.90002 0.183211
1766.22998 0.182913
1766.56995 0.182606
1766.90002 0.182299
1767.22998 0.182007
1767.56995 0.181722
1767.90002 0.181436
1768.22998 0.181134
1768.56006 0.180825
1768.90002 0.180515
1769.22998 0.18022
1769.56006 0.179931
1769.90002 0.179643
1770.22998 0.179354
1770.56006 0.179064
1770.90002 0.178774
1771.22998 0.178467
1771.56995 0.178154
1771.90002 0.177841
1772.22998 0.177542
1772.56995 0.177249
1772.90002 0.176956
1773.23999 0.176662
1773.56995 0.176368
1773.90002 0.176074
1774.23999 0.175763
1774.56995 0.175445
1774.91003 0.175126
1775.23999 0.174872
1775.57996 0.174642
1775.91003 0.174412
1776.25000 0.174165
1776.57996 0.173912
1776.91003 0.173657
1777.25000 0.173419
1777.58997 0.173187
1777.92004 0.172955
1778.26001 0.172721
1778.58997 0.172489
1778.92004 0.172255
1779.26001 0.172002
1779.59998 0.171744
1779.93005 0.171486
1780.27002 0.171247
1780.59998 0.171012
1780.93994 0.170776
1781.27002 0.170521
1781.60999 0.170262
1781.93994 0.170001
1782.28003 0.16976
1782.62000 0.169523
1782.94995 0.169284
1783.29004 0.169025
1783.62000 0.168763
1783.95996 0.168501
1784.30005 0.168257
1784.63000 0.168017
1784.96997 0.167776
1785.31006 0.167534
1785.64001 0.167292
1785.97998 0.16705
1786.31995 0.166785
1786.65002 0.166519
1786.98999 0.166252
1787.32996 0.166008
1787.66003 0.165763
1788.00000 0.165518
1788.33997 0.165249
1788.67004 0.16498
1789.01001 0.164711
1789.34998 0.164464
1789.68005 0.164217
1790.02002 0.163969
1790.35999 0.163721
1790.69995 0.163474
1791.03003 0.163223
1791.37000 0.16295
1791.70996 0.162678
1792.05005 0.162408
1792.38000 0.162157
1792.71997 0.161907
1793.06006 0.161652
1793.40002 0.161377
1793.73999 0.161101
1794.06995 0.160831
1794.41003 0.160578
1794.75000 0.160324
1795.08997 0.160069
1795.43005 0.159815
1795.76001 0.159561
1796.09998 0.159299
1796.43994 0.159019
1796.78003 0.15874
1797.12000 0.158468
1797.45996 0.15821
1797.80005 0.157953
1798.13000 0.157685
1798.46997 0.157402
1798.81006 0.15712
1799.15002 0.156848
1799.48999 0.156587
1799.82996 0.156328
1800.17004 0.156068
1800.51001 0.155812
1800.84998 0.155554
1801.18994 0.155296
1801.53003 0.155037
1801.87000 0.154778
1802.20996 0.154518
1802.55005 0.15426
1802.88000 0.154
1803.21997 0.153724
1803.56995 0.153438
1803.90002 0.153153
1804.25000 0.152884
1804.57996 0.152623
1804.92004 0.152361
1805.26001 0.152099
1805.60999 0.151835
1805.93994 0.151572
1806.29004 0.151309
1806.62000 0.151045
1806.96997 0.150781
1807.31006 0.150516
1807.65002 0.15025
1807.98999 0.149985
1808.32996 0.149719
1808.67004 0.149453
1809.01001 0.149187
1809.34998 0.14892
1809.68994 0.148651
1810.03003 0.148384
1810.38000 0.148116
1810.71997 0.147848
1811.06006 0.147576
1811.40002 0.147283
1811.73999 0.146989
1812.07996 0.146701
1812.42004 0.146432
1812.76001 0.146161
1813.10999 0.14589
1813.44995 0.145619
1813.79004 0.145348
1814.13000 0.145076
1814.46997 0.144804
1814.81006 0.144531
1815.16003 0.144259
1815.50000 0.143985
1815.83997 0.143711
1816.18005 0.143437
1816.53003 0.143162
1816.87000 0.142888
1817.20996 0.142613
1817.55005 0.142337
1817.89001 0.142062
1818.23999 0.141785
1818.57996 0.141509
1818.92004 0.141231
1819.27002 0.140935
1819.60999 0.140632
1819.94995 0.140329
1820.29004 0.140046
1820.64001 0.139768
1820.97998 0.139489
1821.31995 0.13921
1821.67004 0.13893
1822.01001 0.13865
1822.34998 0.138369
1822.69995 0.138088
1823.04004 0.137807
1823.38000 0.137525
1823.72998 0.137242
1824.06995 0.13696
1824.41003 0.136677
1824.76001 0.136395
1825.09998 0.136118
1825.44995 0.135859
1825.79004 0.1356
1826.13000 0.13534
1826.47998 0.13508
1826.81995 0.13482
1827.17004 0.134559
1827.51001 0.134299
1827.85999 0.134037
1828.19995 0.133775
1828.54004 0.133513
1828.89001 0.13325
1829.22998 0.132987
1829.57996 0.132724
1829.92004 0.13246
1830.27002 0.132196
1830.60999 0.131932
1830.95996 0.131668
1831.30005 0.131404
1831.65002 0.131139
1831.98999 0.130874
1832.33997 0.130607
1832.68005 0.13034
1833.03003 0.130074
1833.38000 0.129807
1833.71997 0.12954
1834.06995 0.129273
1834.41003 0.129004
1834.76001 0.128735
1835.09998 0.128466
1835.44995 0.128198
1835.79004 0.127929
1836.14001 0.127658
1836.48999 0.127388
1836.82996 0.127118
1837.18005 0.126846
1837.53003 0.126575
1837.87000 0.126303
1838.21997 0.126032
1838.56995 0.125758
1838.91003 0.125486
1839.26001 0.125213
1839.59998 0.124939
1839.94995 0.124665
1840.30005 0.124392
1840.64001 0.124116
1840.98999 0.123841
1841.33997 0.123566
1841.68005 0.123291
1842.03003 0.123014
1842.38000 0.122739
1842.72998 0.122462
1843.06995 0.122186
1843.42004 0.121907
1843.77002 0.12163
1844.12000 0.121352
1844.45996 0.121073
1844.81006 0.120794
1845.16003 0.120515
1845.51001 0.120235
1845.84998 0.119955
1846.19995 0.119674
1846.55005 0.119394
1846.90002 0.119112
1847.25000 0.11883
1847.58997 0.118548
1847.93994 0.118266
1848.29004 0.117983
1848.64001 0.1177
1848.98999 0.117417
1849.33997 0.117133
1849.68005 0.116849
1850.03003 0.116567
1850.38000 0.116308
1850.72998 0.116049
1851.07996 0.11579
1851.43005 0.115531
1851.78003 0.11527
1852.12000 0.11501
1852.46997 0.11475
1852.81995 0.114489
1853.17004 0.114228
1853.52002 0.113966
1853.87000 0.113704
1854.21997 0.113442
1854.56995 0.113179
1854.92004 0.112916
1855.27002 0.112653
1855.62000 0.112389
1855.96997 0.112125
1856.31995 0.111861
1856.67004 0.111596
1857.02002 0.111331
1857.37000 0.111065
1857.71997 0.110799
1858.06995 0.110533
1858.42004 0.110266
1858.77002 0.109999
1859.12000 0.109731
1859.46997 0.109464
1859.81995 0.109195
1860.17004 0.108928
1860.52002 0.108659
1860.87000 0.10839
1861.21997 0.108121
1861.56995 0.107851
1861.92004 0.107581
1862.27002 0.10731
1862.62000 0.107041
1862.96997 0.10677
1863.32996 0.106498
1863.68005 0.106225
1864.03003 0.105952
1864.38000 0.10568
1864.72998 0.105408
1865.07996 0.105135
1865.43005 0.10486
1865.79004 0.104586
1866.14001 0.104311
1866.48999 0.104037
1866.83997 0.103763
1867.18994 0.103486
1867.55005 0.10321
1867.90002 0.102935
1868.25000 0.102638
1868.59998 0.102334
1868.94995 0.102029
1869.31006 0.101747
1869.66003 0.10147
1870.01001 0.101191
1870.35999 0.100911
1870.70996 0.100632
1871.06995 0.100353
1871.42004 0.100073
1871.77002 0.0997934
1872.12000 0.0995129
1872.47998 0.0992313
1872.82996 0.0989502
1873.18005 0.0986678
1873.54004 0.0983859
1873.89001 0.0981036
1874.23999 0.0978209
1874.59998 0.0975379
1874.94995 0.0972544
1875.30005 0.0969943
1875.66003 0.0967372
1876.01001 0.0964804
1876.35999 0.0962233
1876.71997 0.095965
1877.06995 0.0957073
1877.42004 0.095449
1877.78003 0.0951899
1878.13000 0.0949205
1878.48999 0.0946334
1878.83997 0.0943459
1879.18994 0.0940726
1879.55005 0.0938123
1879.90002 0.0935517
1880.26001 0.0932909
1880.60999 0.093029
1880.95996 0.0927682
1881.31995 0.0925063
1881.67004 0.0922433
1882.03003 0.0919808
1882.38000 0.0917179
1882.73999 0.0914546
1883.08997 0.0911828
1883.44995 0.0908907
1883.80005 0.0905982
1884.16003 0.090317
1884.51001 0.0900519
1884.87000 0.0897865
1885.21997 0.0895207
1885.57996 0.0892538
1885.93005 0.0889873
1886.29004 0.0887205
1886.65002 0.0884526
1887.00000 0.088185
1887.35999 0.0879171
1887.70996 0.0876497
1888.06995 0.0873749
1888.42004 0.0870775
1888.78003 0.0867796
1889.13000 0.0864914
1889.48999 0.0862206
1889.84998 0.085951
1890.19995 0.0856802
1890.56006 0.0854084
1890.92004 0.0851371
1891.27002 0.0848653
1891.63000 0.0845925
1891.97998 0.08432
1892.33997 0.0840198
1892.69995 0.083717
1893.06006 0.0834192
1893.41003 0.0831453
1893.77002 0.082871
1894.12000 0.0825963
1894.47998 0.0823206
1894.83997 0.082046
1895.19995 0.0817694
1895.55005 0.0814933
1895.91003 0.081216
1896.27002 0.0809306
1896.63000 0.080641
1896.97998 0.0803526
1897.33997 0.0800687
1897.69995 0.0797846
1898.06006 0.0794993
1898.41003 0.0792137
1898.77002 0.0789284
1899.13000 0.0786429
1899.48999 0.0783569
1899.83997 0.0780706
1900.19995 0.0777955
1900.56006 0.077531
1900.92004 0.0772645
1901.28003 0.0770008
1901.63000 0.0767373
1901.98999 0.0764734
1902.34998 0.0762054
1902.70996 0.0759378
1903.06995 0.0756698
1903.43005 0.0754043
1903.79004 0.0751393
1904.14001 0.0748719
1904.50000 0.0746017
1904.85999 0.074331
1905.21997 0.07406
1905.57996 0.0737901
1905.93994 0.0735191
1906.30005 0.0732501
1906.66003 0.0729805
1907.02002 0.0727111
1907.38000 0.0724386
1907.73999 0.0721647
1908.09998 0.071893
1908.45996 0.0716214
1908.81995 0.0713503
1909.17004 0.0710773
1909.54004 0.0708015
1909.89001 0.0705262
1910.25000 0.0702527
1910.62000 0.0699789
1910.96997 0.0697063
1911.33997 0.069429
1911.69995 0.0691509
1912.06006 0.0688733
1912.42004 0.0685954
1912.78003 0.068317
1913.14001 0.0680394
1913.50000 0.0677633
1913.85999 0.0674867
1914.21997 0.0672072
1914.57996 0.0669269
1914.93994 0.0666461
1915.30005 0.0663675
1915.66003 0.0660882
1916.02002 0.0658092
1916.38000 0.0655269
1916.73999 0.0652441
1917.10999 0.0649602
1917.46997 0.0646767
1917.82996 0.0643928
1918.18994 0.0641093
1918.55005 0.0638277
1918.91003 0.0635456
1919.27002 0.0632608
1919.64001 0.0629741
1920.00000 0.0626879
1920.35999 0.062405
1920.71997 0.0621202
1921.07996 0.0618351
1921.43994 0.0615473
1921.81006 0.0612583
1922.17004 0.0609702
1922.53003 0.0606851
1922.89001 0.0603987
1923.26001 0.0601089
1923.62000 0.0598187
1923.97998 0.059528
1924.33997 0.0592399
1924.70996 0.0589507
1925.06995 0.0586642
1925.43005 0.0583873
1925.80005 0.0581091
1926.16003 0.0578315
1926.52002 0.0575533
1926.88000 0.0572748
1927.25000 0.056998
1927.60999 0.0567218
1927.96997 0.0564453
1928.33997 0.0561647
1928.69995 0.0558834
1929.06006 0.0556032
1929.43005 0.055325
1929.79004 0.0550465
1930.15002 0.0547663
1930.52002 0.0544839
1930.88000 0.0541996
1931.25000 0.0539164
1931.60999 0.0536338
1931.96997 0.0533499
1932.33997 0.0530676
1932.69995 0.052786
1933.06995 0.0525035
1933.43005 0.0522172
1933.80005 0.0519313
1934.16003 0.0516464
1934.52002 0.0513637
1934.89001 0.0510789
1935.25000 0.0507916
1935.62000 0.0505038
1935.97998 0.0502155
1936.34998 0.049929
1936.70996 0.049644
1937.07996 0.0493561
1937.43994 0.0490654
1937.81006 0.0487752
1938.17004 0.0484846
1938.54004 0.0481927
1938.90002 0.0479021
1939.27002 0.0476126
1939.63000 0.0473236
1940.00000 0.0470333
1940.37000 0.0467402
1940.72998 0.0464468
1941.09998 0.046153
1941.45996 0.0458619
1941.82996 0.0455705
1942.18994 0.0452762
1942.56006 0.0449816
1942.93005 0.0446849
1943.29004 0.0443912
1943.66003 0.0440977
1944.03003 0.0438029
1944.39001 0.0435054
1944.76001 0.0432075
1945.12000 0.0429085
1945.48999 0.0426098
1945.85999 0.0423116
1946.21997 0.0420141
1946.58997 0.0417165
1946.95996 0.0414195
1947.31995 0.0411192
1947.68994 0.0408172
1948.06006 0.0405162
1948.43005 0.0402175
1948.79004 0.0399184
1949.16003 0.039618
1949.53003 0.0393181
1949.90002 0.0390169
1950.26001 0.0387216
1950.63000 0.0384261
1951.00000 0.0381311
1951.37000 0.0378388
1951.72998 0.0375453
1952.09998 0.0372523
1952.46997 0.0369588
1952.83997 0.0366641
1953.19995 0.0363707
1953.56995 0.0360761
1953.93994 0.035781
1954.31006 0.0354848
1954.68005 0.0351889
1955.05005 0.0348928
1955.41003 0.0345953
1955.78003 0.0342983
1956.15002 0.0340008
1956.52002 0.0337022
1956.89001 0.0334031
1957.26001 0.0331044
1957.63000 0.0328063
1958.00000 0.0325059
1958.35999 0.0322061
1958.72998 0.0319059
1959.09998 0.0316044
1959.46997 0.0312992
1959.83997 0.0309944
1960.20996 0.0306911
1960.57996 0.0303897
1960.94995 0.0300862
1961.31995 0.029782
1961.68994 0.0294772
1962.06006 0.0291711
1962.43005 0.0288646
1962.80005 0.0285596
1963.17004 0.0282524
1963.54004 0.0279447
1963.91003 0.0276377
1964.28003 0.0273302
1964.65002 0.0270224
1965.02002 0.0267141
1965.39001 0.0264056
1965.76001 0.0260966
1966.13000 0.0257862
1966.50000 0.0254765
1966.87000 0.0251664
1967.23999 0.0248549
1967.60999 0.0245449
1967.97998 0.0242337
1968.34998 0.0239211
1968.71997 0.0236091
1969.09998 0.0232957
1969.46997 0.0229829
1969.83997 0.0226697
1970.20996 0.0223552
1970.57996 0.0220411
1970.94995 0.0217268
1971.31995 0.0214082
1971.68994 0.0210898
1972.06995 0.0207724
1972.43994 0.0204565
1972.81006 0.0201393
1973.18005 0.0198217
1973.55005 0.0195054
1973.92004 0.0191871
1974.30005 0.0188746
1974.67004 0.0185631
1975.04004 0.0182571
1975.41003 0.017999
1975.79004 0.0177399
1976.16003 0.0174818
1976.53003 0.0172261
1976.90002 0.0169701
1977.28003 0.0167138
1977.65002 0.0164573
1978.02002 0.0161998
1978.39001 0.0159452
1978.77002 0.0156918
1979.14001 0.0154354
1979.51001 0.0151779
1979.88000 0.0149187
1980.26001 0.0146606
1980.63000 0.0144007
1981.00000 0.0141414
1981.38000 0.0138851
1981.75000 0.0136276
1982.12000 0.0133696
1982.50000 0.0131089
1982.87000 0.0128471
1983.23999 0.012588
1983.62000 0.0123291
1983.98999 0.0120705
1984.37000 0.0118091
1984.73999 0.0115457
1985.12000 0.0112821
1985.48999 0.0110196
1985.85999 0.0107553
1986.23999 0.0104936
1986.60999 0.0102328
1986.97998 0.0099726
1987.35999 0.00970709
1987.72998 0.00944193
1988.10999 0.00917691
1988.47998 0.00891174
1988.85999 0.00864699
1989.22998 0.00838197
1989.60999 0.00811581
1989.97998 0.00785017
1990.35999 0.00758383
1990.72998 0.00731643
1991.10999 0.00705033
1991.47998 0.00678256
1991.85999 0.00651451
1992.22998 0.00624768
1992.60999 0.00597891
1992.97998 0.00571066
1993.35999 0.00544214
1993.73999 0.00517248
1994.10999 0.00490392
1994.48999 0.00463327
1994.85999 0.00436384
1995.23999 0.00409269
1995.62000 0.0038214
1995.98999 0.00354983
1996.37000 0.0032794
1996.73999 0.00300799
1997.12000 0.00273422
2196.83203 0.0
