# %ECSV 0.9
# ---
# datatype:
# - {name: wavelength, unit: Angstrom, datatype: float32}
# - {name: response, datatype: float32}
# meta: !!omap
# - {band_name: F187N}
# - {group_name: NICMOS1}
wavelength response
18535.68945 0.0
18535.88086 1.3e-05
18536.06055 5.8e-05
18536.24023 9.5e-05
18536.42969 0.000133
18536.60938 0.00017
18536.78906 0.000207
18536.98047 0.000244
18537.16016 0.000281
18537.34961 0.000318
18537.52930 0.000355
18537.71094 0.000392
18537.90039 0.00043
18538.08008 0.000455
18538.26953 0.000466
18538.44922 0.000477
18538.63086 0.000488
18538.82031 0.0005
18539.00000 0.000511
18539.18945 0.000522
18539.36914 0.000533
18539.55078 0.000544
18539.74023 0.000555
18539.91992 0.000566
18540.10938 0.000579
18540.28906 0.000593
18540.47070 0.000607
18540.66016 0.000622
18540.83984 0.000636
18541.02930 0.00065
18541.21094 0.000664
18541.39062 0.000678
18541.58008 0.000692
18541.75977 0.000706
18541.94922 0.00072
18542.13086 0.000717
18542.31055 0.000707
18542.50000 0.000697
18542.67969 0.000687
18542.86914 0.000677
18543.05078 0.000667
18543.23047 0.000657
18543.41992 0.000647
18543.59961 0.000637
18543.78906 0.000627
18543.97070 0.000617
18544.16016 0.000622
18544.33984 0.00063
18544.51953 0.000638
18544.71094 0.000646
18544.89062 0.000654
18545.08008 0.000662
18545.25977 0.00067
18545.43945 0.000678
18545.63086 0.000686
18545.81055 0.000694
18546.00000 0.000702
18546.17969 0.000714
18546.35938 0.000726
18546.55078 0.000738
18546.73047 0.000749
18546.91992 0.000761
18547.09961 0.000773
18547.28906 0.000785
18547.47070 0.000797
18547.65039 0.000809
18547.83984 0.000821
18548.01953 0.000827
18548.21094 0.000786
18548.39062 0.000744
18548.57031 0.000703
18548.75977 0.000662
18548.93945 0.000621
18549.11914 0.000579
18549.31055 0.000538
18549.49023 0.000497
18549.67969 0.000456
18549.85938 0.000415
18550.05078 0.000402
18550.23047 0.000476
18550.41016 0.00055
18550.59961 0.000624
18550.77930 0.000699
18550.97070 0.000773
18551.15039 0.000847
18551.33008 0.000921
18551.51953 0.000995
18551.69922 0.001069
18551.89062 0.001143
18552.07031 0.001171
18552.25977 0.001124
18552.43945 0.001078
18552.61914 0.001031
18552.81055 0.000984
18552.99023 0.000937
18553.17969 0.000891
18553.35938 0.000844
18553.53906 0.000797
18553.73047 0.000751
18553.91016 0.000704
18554.09961 0.000698
18554.27930 0.000729
18554.46094 0.00076
18554.65039 0.000791
18554.83008 0.000822
18555.01953 0.000853
18555.19922 0.000884
18555.39062 0.000915
18555.57031 0.000946
18555.75000 0.000977
18555.93945 0.001008
18556.11914 0.001045
18556.31055 0.001084
18556.49023 0.001124
18556.67969 0.001163
18556.85938 0.001203
18557.03906 0.001242
18557.23047 0.001282
18557.41016 0.001321
18557.59961 0.001361
18557.77930 0.0014
18557.96094 0.00144
18558.15039 0.001432
18558.33008 0.001412
18558.51953 0.001392
18558.69922 0.001372
18558.88086 0.001352
18559.07031 0.001332
18559.25000 0.001312
18559.43945 0.001292
18559.61914 0.001272
18559.81055 0.001252
18559.99023 0.001232
18560.17969 0.001192
18560.35938 0.00115
18560.53906 0.001109
18560.73047 0.001068
18560.91016 0.001026
18561.09961 0.000984
18561.27930 0.000943
18561.46094 0.000901
18561.65039 0.00086
18561.83008 0.000818
18562.01953 0.000782
18562.19922 0.000801
18562.38086 0.00082
18562.57031 0.000839
18562.75000 0.000858
18562.93945 0.000877
18563.11914 0.000896
18563.31055 0.000915
18563.49023 0.000934
18563.67969 0.000953
18563.85938 0.000972
18564.03906 0.000997
18564.23047 0.001045
18564.41016 0.001092
18564.59961 0.001139
18564.77930 0.001187
18564.96094 0.001234
18565.15039 0.001281
18565.33008 0.001329
18565.51953 0.001376
18565.69922 0.001423
18565.89062 0.001471
18566.07031 0.001486
18566.25000 0.001448
18566.43945 0.00141
18566.61914 0.001373
18566.81055 0.001335
18566.99023 0.001297
18567.17969 0.001259
18567.35938 0.001221
18567.53906 0.001184
18567.73047 0.001146
18567.91016 0.001108
18568.09961 0.001109
18568.27930 0.001143
18568.47070 0.001177
18568.65039 0.001211
18568.83008 0.001244
18569.01953 0.001279
18569.19922 0.001312
18569.39062 0.001346
18569.57031 0.001381
18569.75977 0.001414
18569.93945 0.001449
18570.13086 0.00147
18570.31055 0.001486
18570.49023 0.001502
18570.67969 0.001518
18570.85938 0.001534
18571.05078 0.001551
18571.23047 0.001567
18571.41016 0.001583
18571.59961 0.001599
18571.77930 0.001615
18571.97070 0.001631
18572.15039 0.001655
18572.33984 0.001681
18572.51953 0.001707
18572.71094 0.001733
18572.89062 0.001759
18573.07031 0.001786
18573.25977 0.001812
18573.43945 0.001838
18573.63086 0.001864
18573.81055 0.00189
18574.00000 0.001916
18574.17969 0.001894
18574.36914 0.001871
18574.55078 0.001848
18574.73047 0.001825
18574.91992 0.001801
18575.09961 0.001778
18575.28906 0.001755
18575.47070 0.001732
18575.65039 0.001709
18575.83984 0.001686
18576.01953 0.001669
18576.21094 0.001694
18576.39062 0.00172
18576.58008 0.001746
18576.75977 0.001771
18576.94922 0.001797
18577.13086 0.001823
18577.31055 0.001848
18577.50000 0.001874
18577.67969 0.0019
18577.86914 0.001925
18578.05078 0.001947
18578.24023 0.001957
18578.41992 0.001968
18578.60938 0.001979
18578.78906 0.001989
18578.97070 0.002
18579.16016 0.00201
18579.33984 0.002021
18579.52930 0.002031
18579.71094 0.002042
18579.90039 0.002053
18580.08008 0.002079
18580.25977 0.002126
18580.44922 0.002174
18580.63086 0.00222
18580.82031 0.002268
18581.00000 0.002315
18581.18945 0.002362
18581.36914 0.002409
18581.55078 0.002456
18581.74023 0.002504
18581.91992 0.002551
18582.10938 0.002574
18582.28906 0.00258
18582.48047 0.002586
18582.66016 0.002592
18582.84961 0.002598
18583.02930 0.002605
18583.21094 0.002611
18583.40039 0.002617
18583.58008 0.002623
18583.76953 0.002629
18583.94922 0.002635
18584.14062 0.002694
18584.32031 0.00277
18584.50977 0.002846
18584.68945 0.002923
18584.88086 0.002999
18585.06055 0.003076
18585.24023 0.003152
18585.42969 0.003228
18585.60938 0.003304
18585.80078 0.00338
18585.98047 0.003457
18586.16992 0.003496
18586.34961 0.003532
18586.53906 0.003567
18586.72070 0.003602
18586.90039 0.003637
18587.08984 0.003673
18587.26953 0.003708
18587.46094 0.003743
18587.64062 0.003778
18587.83008 0.003813
18588.00977 0.003839
18588.19922 0.003723
18588.38086 0.003606
18588.56055 0.00349
18588.75000 0.003373
18588.92969 0.003257
18589.11914 0.00314
18589.30078 0.003024
18589.49023 0.002909
18589.66992 0.002792
18589.85938 0.002676
18590.03906 0.002614
18590.22070 0.002748
18590.41016 0.002882
18590.58984 0.003015
18590.77930 0.00315
18590.96094 0.003283
18591.15039 0.003418
18591.33008 0.003551
18591.51953 0.003686
18591.69922 0.003819
18591.89062 0.003954
18592.07031 0.004033
18592.25977 0.004025
18592.43945 0.004016
18592.63086 0.004008
18592.81055 0.004
18592.99023 0.003992
18593.17969 0.003983
18593.35938 0.003975
18593.55078 0.003967
18593.73047 0.003959
18593.91992 0.003951
18594.09961 0.004002
18594.28906 0.004106
18594.47070 0.004209
18594.65039 0.004312
18594.83984 0.004415
18595.01953 0.004519
18595.21094 0.004621
18595.39062 0.004725
18595.58008 0.004827
18595.75977 0.004931
18595.94922 0.005034
18596.13086 0.005081
18596.31055 0.005106
18596.50000 0.00513
18596.67969 0.005155
18596.86914 0.005179
18597.05078 0.005204
18597.24023 0.005228
18597.41992 0.005252
18597.60938 0.005277
18597.78906 0.005301
18597.98047 0.005326
18598.16016 0.005342
18598.34961 0.005357
18598.52930 0.005372
18598.71094 0.005386
18598.90039 0.005401
18599.08008 0.005416
18599.26953 0.005431
18599.44922 0.005446
18599.64062 0.00546
18599.82031 0.005475
18600.00977 0.005494
18600.18945 0.005624
18600.38086 0.005754
18600.56055 0.005882
18600.75000 0.006012
18600.92969 0.006141
18601.11914 0.006271
18601.30078 0.0064
18601.48047 0.00653
18601.66992 0.006658
18601.84961 0.006788
18602.03906 0.006898
18602.22070 0.006935
18602.41016 0.006971
18602.58984 0.007008
18602.77930 0.007044
18602.96094 0.007081
18603.14062 0.007118
18603.33008 0.007154
18603.50977 0.007191
18603.69922 0.007227
18603.88086 0.007264
18604.07031 0.007304
18604.25000 0.007351
18604.43945 0.007398
18604.61914 0.007445
18604.81055 0.007491
18604.99023 0.007538
18605.17969 0.007585
18605.35938 0.007632
18605.53906 0.007679
18605.73047 0.007726
18605.91992 0.007773
18606.09961 0.007821
18606.28906 0.007871
18606.47070 0.00792
18606.65039 0.00797
18606.83984 0.00802
18607.01953 0.00807
18607.21094 0.008119
18607.39062 0.008169
18607.58008 0.008219
18607.75977 0.008269
18607.94922 0.008319
18608.13086 0.008343
18608.32031 0.008356
18608.50000 0.00837
18608.68945 0.008383
18608.86914 0.008397
18609.05078 0.008411
18609.24023 0.008424
18609.41992 0.008438
18609.60938 0.008452
18609.78906 0.008465
18609.98047 0.008479
18610.16016 0.008712
18610.34961 0.008977
18610.52930 0.009242
18610.72070 0.009504
18610.90039 0.009769
18611.08984 0.010031
18611.26953 0.010296
18611.46094 0.010559
18611.64062 0.010824
18611.83008 0.011089
18612.00977 0.011338
18612.19922 0.011369
18612.38086 0.011399
18612.56055 0.01143
18612.75000 0.01146
18612.92969 0.01149
18613.11914 0.011521
18613.30078 0.011551
18613.49023 0.011582
18613.66992 0.011612
18613.85938 0.011642
18614.03906 0.011706
18614.23047 0.011875
18614.41016 0.012047
18614.59961 0.012217
18614.77930 0.012388
18614.96094 0.012558
18615.15039 0.01273
18615.33984 0.012901
18615.51953 0.013071
18615.71094 0.013243
18615.89062 0.013413
18616.07031 0.013602
18616.25977 0.013818
18616.43945 0.014032
18616.63086 0.014248
18616.81055 0.014462
18617.00000 0.014678
18617.17969 0.014894
18617.36914 0.015108
18617.55078 0.015324
18617.74023 0.015537
18617.91992 0.015754
18618.10938 0.015957
18618.28906 0.016149
18618.48047 0.016344
18618.66016 0.016538
18618.84961 0.01673
18619.02930 0.016925
18619.21094 0.017117
18619.40039 0.017311
18619.58984 0.017506
18619.76953 0.017698
18619.96094 0.017892
18620.14062 0.018034
18620.32031 0.018159
18620.50977 0.018285
18620.68945 0.01841
18620.88086 0.018536
18621.06055 0.018662
18621.25000 0.018786
18621.42969 0.018912
18621.61914 0.019037
18621.80078 0.019163
18621.99023 0.019289
18622.16992 0.019548
18622.35938 0.01982
18622.53906 0.020092
18622.73047 0.020361
18622.91016 0.020633
18623.09961 0.020905
18623.27930 0.021174
18623.47070 0.021446
18623.65039 0.021716
18623.83984 0.021987
18624.01953 0.022257
18624.21094 0.022507
18624.39062 0.02276
18624.58008 0.023013
18624.75977 0.023263
18624.94922 0.023516
18625.13086 0.023768
18625.31055 0.024018
18625.50000 0.024271
18625.67969 0.024521
18625.86914 0.024774
18626.05078 0.025019
18626.24023 0.025245
18626.41992 0.025473
18626.60938 0.025702
18626.78906 0.025928
18626.98047 0.026156
18627.16016 0.026384
18627.34961 0.02661
18627.52930 0.026838
18627.72070 0.027067
18627.90039 0.027292
18628.08984 0.027584
18628.26953 0.027947
18628.46094 0.028306
18628.64062 0.028669
18628.83008 0.029031
18629.00977 0.02939
18629.19922 0.029753
18629.38086 0.030115
18629.57031 0.030474
18629.75000 0.030837
18629.93945 0.031199
18630.11914 0.031561
18630.31055 0.031929
18630.49023 0.032297
18630.67969 0.032661
18630.85938 0.033029
18631.05078 0.033397
18631.23047 0.033761
18631.41992 0.034128
18631.59961 0.034496
18631.78906 0.03486
18631.97070 0.035228
18632.16016 0.035687
18632.33984 0.036158
18632.52930 0.036634
18632.71094 0.03711
18632.89062 0.037581
18633.08008 0.038057
18633.26953 0.038532
18633.44922 0.039008
18633.63086 0.039479
18633.82031 0.039955
18634.00977 0.040431
18634.18945 0.040908
18634.36914 0.041389
18634.56055 0.041871
18634.74023 0.042347
18634.92969 0.042828
18635.11914 0.04331
18635.30078 0.043786
18635.48047 0.044268
18635.66992 0.044749
18635.85938 0.045231
18636.03906 0.045733
18636.22070 0.046336
18636.41016 0.046939
18636.58984 0.047536
18636.77930 0.048139
18636.96094 0.048743
18637.15039 0.049339
18637.33008 0.049943
18637.51953 0.050546
18637.71094 0.051149
18637.89062 0.051746
18638.07031 0.052397
18638.25977 0.053119
18638.43945 0.053834
18638.63086 0.054556
18638.81055 0.055278
18639.00000 0.056
18639.17969 0.056715
18639.36914 0.057437
18639.55078 0.058159
18639.74023 0.058874
18639.91992 0.059596
18640.10938 0.060304
18640.28906 0.061003
18640.48047 0.061694
18640.66016 0.062393
18640.84961 0.063092
18641.03906 0.06379
18641.22070 0.064481
18641.40039 0.06518
18641.58984 0.065879
18641.76953 0.06657
18641.96094 0.067268
18642.14062 0.068022
18642.33008 0.06879
18642.50977 0.069551
18642.69922 0.07032
18642.88086 0.071089
18643.07031 0.071858
18643.25000 0.072618
18643.43945 0.073387
18643.61914 0.074156
18643.81055 0.074924
18643.99023 0.075685
18644.17969 0.076493
18644.36914 0.077302
18644.55078 0.078111
18644.73047 0.078911
18644.91992 0.07972
18645.10938 0.080529
18645.28906 0.081329
18645.47070 0.082138
18645.66016 0.082947
18645.84961 0.083756
18646.02930 0.084566
18646.21094 0.08544
18646.40039 0.086313
18646.58984 0.087187
18646.76953 0.088051
18646.96094 0.088925
18647.14062 0.089798
18647.33008 0.090672
18647.50977 0.091545
18647.69922 0.09241
18647.88086 0.093283
18648.07031 0.094152
18648.25000 0.095012
18648.43945 0.095864
18648.61914 0.096724
18648.81055 0.097585
18648.99023 0.098445
18649.17969 0.099296
18649.35938 0.100156
18649.55078 0.101017
18649.73047 0.101877
18649.91992 0.102728
18650.09961 0.103687
18650.28906 0.104728
18650.47070 0.105768
18650.66016 0.106808
18650.83984 0.107838
18651.02930 0.108878
18651.21094 0.109918
18651.40039 0.110959
18651.58008 0.111988
18651.76953 0.113028
18651.94922 0.114069
18652.14062 0.115027
18652.32031 0.115958
18652.50977 0.116879
18652.68945 0.117809
18652.88086 0.11874
18653.06055 0.119671
18653.25000 0.120602
18653.42969 0.121523
18653.61914 0.122453
18653.80078 0.123384
18653.99023 0.124314
18654.16992 0.125247
18654.35938 0.126189
18654.53906 0.127132
18654.73047 0.128075
18654.91992 0.129017
18655.09961 0.12995
18655.28906 0.130893
18655.47070 0.131835
18655.66016 0.132778
18655.83984 0.13372
18656.02930 0.134668
18656.21094 0.135724
18656.40039 0.136779
18656.58008 0.137835
18656.76953 0.13889
18656.94922 0.139934
18657.14062 0.14099
18657.32031 0.142045
18657.50977 0.1431
18657.68945 0.144155
18657.88086 0.145211
18658.06055 0.146205
18658.25000 0.147113
18658.42969 0.14802
18658.61914 0.148928
18658.80078 0.149836
18658.99023 0.150734
18659.16992 0.151641
18659.35938 0.152549
18659.53906 0.153456
18659.73047 0.154364
18659.91992 0.155271
18660.09961 0.156127
18660.28906 0.156957
18660.47070 0.157786
18660.66016 0.158615
18660.83984 0.159444
18661.02930 0.160265
18661.21094 0.161094
18661.40039 0.161924
18661.58008 0.162753
18661.76953 0.163582
18661.94922 0.164411
18662.14062 0.165261
18662.32031 0.166131
18662.50977 0.167
18662.68945 0.16787
18662.88086 0.168739
18663.06055 0.169609
18663.25000 0.170469
18663.42969 0.171339
18663.61914 0.172208
18663.80078 0.173077
18663.99023 0.173947
18664.17969 0.174707
18664.35938 0.175461
18664.53906 0.176207
18664.73047 0.176962
18664.91992 0.177716
18665.09961 0.17847
18665.28906 0.179224
18665.47070 0.179978
18665.66016 0.180724
18665.83984 0.181478
18666.02930 0.182214
18666.21094 0.18284
18666.40039 0.183466
18666.58008 0.184092
18666.76953 0.184718
18666.94922 0.185337
18667.14062 0.185963
18667.32031 0.186589
18667.50977 0.187215
18667.69922 0.187841
18667.88086 0.188467
18668.07031 0.189096
18668.25000 0.189724
18668.43945 0.190359
18668.61914 0.190994
18668.81055 0.191629
18668.99023 0.192264
18669.17969 0.192899
18669.35938 0.193534
18669.55078 0.194169
18669.73047 0.194797
18669.91992 0.195432
18670.09961 0.19598
18670.28906 0.196459
18670.47070 0.196938
18670.66016 0.197417
18670.84961 0.197896
18671.02930 0.198375
18671.21094 0.198849
18671.40039 0.199328
18671.58984 0.199807
18671.76953 0.200286
18671.96094 0.200765
18672.14062 0.201308
18672.33008 0.201871
18672.50977 0.202433
18672.69922 0.20299
18672.88086 0.203553
18673.07031 0.204115
18673.25000 0.204678
18673.43945 0.205241
18673.61914 0.205803
18673.81055 0.206366
18674.00000 0.206928
18674.17969 0.207264
18674.36914 0.207592
18674.55078 0.207923
18674.74023 0.208254
18674.91992 0.208585
18675.10938 0.208916
18675.28906 0.209247
18675.48047 0.209578
18675.66016 0.209909
18675.84961 0.21024
18676.03906 0.210529
18676.22070 0.210638
18676.40039 0.210749
18676.58984 0.21086
18676.77930 0.21097
18676.96094 0.211081
18677.15039 0.211191
18677.33008 0.211302
18677.51953 0.211413
18677.69922 0.211523
18677.89062 0.211634
18678.07031 0.211684
18678.25977 0.211643
18678.43945 0.211603
18678.63086 0.211562
18678.81055 0.211522
18679.00000 0.211481
18679.18945 0.211441
18679.36914 0.2114
18679.56055 0.211359
18679.74023 0.211319
18679.92969 0.211278
18680.10938 0.211254
18680.30078 0.211242
18680.48047 0.211229
18680.66992 0.211216
18680.84961 0.211203
18681.03906 0.211191
18681.22070 0.211178
18681.41016 0.211165
18681.59961 0.211152
18681.77930 0.21114
18681.97070 0.211127
18682.15039 0.211021
18682.33984 0.210896
18682.51953 0.21077
18682.71094 0.210644
18682.89062 0.210519
18683.08008 0.210393
18683.26953 0.210267
18683.44922 0.210142
18683.63086 0.210017
18683.82031 0.209892
18684.00977 0.209763
18684.18945 0.209548
18684.38086 0.209333
18684.56055 0.209119
18684.75000 0.208904
18684.92969 0.208689
18685.11914 0.208474
18685.30078 0.208259
18685.49023 0.208044
18685.67969 0.20783
18685.85938 0.207615
18686.05078 0.207391
18686.23047 0.20714
18686.41992 0.206889
18686.59961 0.206638
18686.78906 0.206387
18686.97070 0.206136
18687.16016 0.205885
18687.33984 0.205637
18687.52930 0.205386
18687.71094 0.205135
18687.90039 0.204884
18688.08984 0.204665
18688.26953 0.204481
18688.46094 0.204298
18688.64062 0.204115
18688.83008 0.203931
18689.00977 0.203748
18689.19922 0.203564
18689.38086 0.203381
18689.57031 0.203198
18689.75977 0.203014
18689.93945 0.202831
18690.13086 0.202562
18690.31055 0.202255
18690.50000 0.201947
18690.67969 0.201639
18690.86914 0.201332
18691.05078 0.201024
18691.24023 0.200717
18691.42969 0.200409
18691.60938 0.200102
18691.80078 0.199794
18691.98047 0.199486
18692.16992 0.199165
18692.34961 0.198841
18692.53906 0.198518
18692.72070 0.198195
18692.91016 0.197872
18693.09961 0.197548
18693.27930 0.197225
18693.47070 0.196902
18693.65039 0.196579
18693.83984 0.196255
18694.01953 0.195954
18694.21094 0.195806
18694.39062 0.195658
18694.58008 0.19551
18694.76953 0.195362
18694.94922 0.195213
18695.14062 0.195065
18695.32031 0.194917
18695.50977 0.194769
18695.68945 0.194621
18695.88086 0.194473
18696.06055 0.194309
18696.25000 0.194116
18696.43945 0.193923
18696.61914 0.19373
18696.81055 0.193537
18696.99023 0.193344
18697.17969 0.193151
18697.35938 0.192957
18697.55078 0.192764
18697.73047 0.192571
18697.91992 0.192378
18698.10938 0.1922
18698.28906 0.192032
18698.48047 0.191864
18698.66016 0.191696
18698.84961 0.191528
18699.02930 0.19136
18699.22070 0.191192
18699.40039 0.191024
18699.58984 0.190856
18699.77930 0.190689
18699.96094 0.190521
18700.15039 0.190349
18700.33008 0.190176
18700.51953 0.190002
18700.69922 0.18983
18700.89062 0.189656
18701.07031 0.189483
18701.25977 0.18931
18701.44922 0.189137
18701.63086 0.188964
18701.82031 0.188791
18702.00000 0.188618
18702.18945 0.18846
18702.36914 0.188302
18702.56055 0.188141
18702.75000 0.187983
18702.92969 0.187825
18703.11914 0.187666
18703.30078 0.187508
18703.49023 0.187349
18703.66992 0.187191
18703.85938 0.187032
18704.03906 0.186898
18704.23047 0.186841
18704.41992 0.186783
18704.59961 0.186726
18704.78906 0.186668
18704.97070 0.186611
18705.16016 0.186553
18705.33984 0.186496
18705.52930 0.186438
18705.71094 0.186381
18705.90039 0.186324
18706.08984 0.186251
18706.26953 0.186163
18706.46094 0.186073
18706.64062 0.185984
18706.83008 0.185895
18707.01953 0.185806
18707.19922 0.185717
18707.39062 0.185628
18707.57031 0.185539
18707.75977 0.18545
18707.93945 0.185361
18708.13086 0.185335
18708.31055 0.185337
18708.50000 0.185339
18708.68945 0.18534
18708.86914 0.185342
18709.06055 0.185344
18709.24023 0.185345
18709.42969 0.185347
18709.61914 0.185349
18709.80078 0.185351
18709.99023 0.185352
18710.16992 0.185388
18710.35938 0.185426
18710.53906 0.185464
18710.73047 0.185502
18710.91016 0.18554
18711.09961 0.185578
18711.28906 0.185617
18711.47070 0.185655
18711.66016 0.185693
18711.83984 0.185731
18712.02930 0.185788
18712.21094 0.185946
18712.40039 0.186104
18712.58984 0.186262
18712.76953 0.18642
18712.96094 0.186578
18713.14062 0.186736
18713.33008 0.186894
18713.50977 0.187052
18713.69922 0.187211
18713.89062 0.187369
18714.07031 0.187456
18714.25977 0.187431
18714.43945 0.187406
18714.63086 0.187381
18714.81055 0.187356
18715.00000 0.187331
18715.18945 0.187306
18715.36914 0.18728
18715.56055 0.187255
18715.74023 0.18723
18715.92969 0.187205
18716.11914 0.187224
18716.30078 0.18727
18716.49023 0.187316
18716.66992 0.187362
18716.85938 0.187408
18717.03906 0.187454
18717.23047 0.187501
18717.41992 0.187547
18717.59961 0.187593
18717.78906 0.187639
18717.97070 0.187685
18718.16016 0.187774
18718.33984 0.187871
18718.52930 0.187968
18718.71094 0.188064
18718.90039 0.188162
18719.08984 0.188259
18719.26953 0.188355
18719.46094 0.188452
18719.64062 0.188549
18719.83008 0.188645
18720.01953 0.18875
18720.19922 0.188944
18720.39062 0.189139
18720.57031 0.189333
18720.75977 0.189527
18720.94922 0.18972
18721.13086 0.189914
18721.32031 0.190107
18721.50000 0.190301
18721.68945 0.190497
18721.88086 0.19069
18722.06055 0.190839
18722.25000 0.190894
18722.42969 0.19095
18722.61914 0.191006
18722.80078 0.191061
18722.99023 0.191117
18723.17969 0.191173
18723.35938 0.191229
18723.55078 0.191284
18723.73047 0.19134
18723.91992 0.191395
18724.09961 0.191527
18724.28906 0.191719
18724.48047 0.19191
18724.66016 0.192101
18724.84961 0.192292
18725.02930 0.192483
18725.22070 0.192674
18725.40039 0.192864
18725.58984 0.193057
18725.77930 0.193248
18725.96094 0.193439
18726.15039 0.193814
18726.33008 0.194235
18726.51953 0.194656
18726.71094 0.195081
18726.89062 0.195502
18727.08008 0.195923
18727.25977 0.196344
18727.44922 0.196765
18727.63086 0.197186
18727.82031 0.197611
18728.00977 0.19802
18728.18945 0.198163
18728.38086 0.198305
18728.56055 0.198448
18728.75000 0.19859
18728.93945 0.198734
18729.11914 0.198877
18729.31055 0.199019
18729.49023 0.199162
18729.67969 0.199304
18729.86914 0.199446
18730.05078 0.199606
18730.24023 0.199802
18730.41992 0.199999
18730.60938 0.200196
18730.78906 0.200393
18730.98047 0.200589
18731.16992 0.200788
18731.34961 0.200984
18731.53906 0.201181
18731.72070 0.201378
18731.91016 0.201574
18732.09961 0.201772
18732.27930 0.201967
18732.47070 0.202161
18732.65039 0.202356
18732.83984 0.202551
18733.02930 0.202747
18733.21094 0.202942
18733.40039 0.203137
18733.58008 0.203332
18733.76953 0.203526
18733.96094 0.203723
18734.14062 0.203949
18734.33008 0.204184
18734.50977 0.204419
18734.69922 0.204654
18734.89062 0.204892
18735.07031 0.205127
18735.25977 0.205363
18735.43945 0.205598
18735.63086 0.205833
18735.82031 0.206071
18736.00000 0.206305
18736.18945 0.206455
18736.36914 0.206605
18736.56055 0.206755
18736.75000 0.206906
18736.92969 0.207056
18737.11914 0.207206
18737.30078 0.207356
18737.49023 0.207506
18737.67969 0.207658
18737.85938 0.207808
18738.05078 0.207978
18738.23047 0.208209
18738.41992 0.208442
18738.60938 0.208672
18738.78906 0.208903
18738.98047 0.209133
18739.16016 0.209364
18739.34961 0.209597
18739.53906 0.209828
18739.72070 0.210058
18739.91016 0.210289
18740.08984 0.210485
18740.27930 0.210643
18740.46094 0.2108
18740.65039 0.210958
18740.83984 0.211117
18741.01953 0.211275
18741.21094 0.211432
18741.39062 0.21159
18741.58008 0.211748
18741.76953 0.211907
18741.94922 0.212065
18742.14062 0.212191
18742.32031 0.212308
18742.50977 0.212425
18742.69922 0.212541
18742.88086 0.212658
18743.07031 0.212774
18743.25977 0.212892
18743.43945 0.213008
18743.63086 0.213124
18743.81055 0.213241
18744.00000 0.213358
18744.18945 0.213485
18744.36914 0.213613
18744.56055 0.21374
18744.74023 0.213869
18744.92969 0.213996
18745.11914 0.214123
18745.30078 0.21425
18745.49023 0.214379
18745.66992 0.214506
18745.85938 0.214633
18746.03906 0.214749
18746.23047 0.214827
18746.41992 0.214905
18746.59961 0.214982
18746.78906 0.21506
18746.98047 0.215138
18747.16016 0.215216
18747.34961 0.215294
18747.53906 0.215372
18747.72070 0.21545
18747.91016 0.215527
18748.08984 0.215675
18748.27930 0.215898
18748.46094 0.216118
18748.65039 0.216338
18748.83984 0.216558
18749.01953 0.216781
18749.21094 0.217001
18749.39062 0.217221
18749.58008 0.217444
18749.76953 0.217664
18749.94922 0.217884
18750.14062 0.217967
18750.33008 0.218005
18750.50977 0.218042
18750.69922 0.218079
18750.88086 0.218117
18751.07031 0.218154
18751.25977 0.218191
18751.43945 0.218228
18751.63086 0.218266
18751.81055 0.218303
18752.00000 0.21834
18752.18945 0.218422
18752.36914 0.218503
18752.56055 0.218585
18752.74023 0.218666
18752.92969 0.218748
18753.11914 0.218829
18753.30078 0.21891
18753.49023 0.218992
18753.67969 0.219073
18753.85938 0.219154
18754.05078 0.219223
18754.23047 0.219256
18754.41992 0.219289
18754.60938 0.219322
18754.78906 0.219355
18754.98047 0.219388
18755.16016 0.219421
18755.34961 0.219454
18755.53906 0.219487
18755.72070 0.21952
18755.91016 0.219553
18756.09961 0.219558
18756.27930 0.219537
18756.47070 0.219516
18756.65039 0.219495
18756.83984 0.219474
18757.02930 0.219453
18757.21094 0.219432
18757.40039 0.219411
18757.58008 0.219389
18757.76953 0.219368
18757.96094 0.219347
18758.14062 0.219347
18758.33008 0.219354
18758.51953 0.21936
18758.69922 0.219367
18758.89062 0.219373
18759.07031 0.21938
18759.25977 0.219386
18759.44922 0.219393
18759.63086 0.219399
18759.82031 0.219406
18760.00977 0.219412
18760.18945 0.219398
18760.38086 0.219384
18760.56055 0.219369
18760.75000 0.219355
18760.93945 0.219341
18761.11914 0.219327
18761.31055 0.219313
18761.49023 0.219299
18761.67969 0.219285
18761.86914 0.219271
18762.05078 0.219245
18762.24023 0.219189
18762.42969 0.219134
18762.60938 0.219079
18762.80078 0.219023
18762.98047 0.218968
18763.16992 0.218913
18763.35938 0.218857
18763.53906 0.218802
18763.73047 0.218747
18763.91992 0.218691
18764.09961 0.218629
18764.28906 0.218561
18764.47070 0.218492
18764.66016 0.218423
18764.84961 0.218354
18765.02930 0.218286
18765.22070 0.218217
18765.41016 0.218148
18765.58984 0.21808
18765.77930 0.218012
18765.96094 0.217943
18766.15039 0.217873
18766.33984 0.217804
18766.51953 0.217734
18766.71094 0.217665
18766.89062 0.217595
18767.08008 0.217525
18767.26953 0.217456
18767.46094 0.217386
18767.64062 0.217316
18767.83008 0.217247
18768.00977 0.217173
18768.19922 0.217051
18768.38086 0.216928
18768.57031 0.216805
18768.75977 0.216683
18768.94922 0.216559
18769.13086 0.216437
18769.32031 0.216314
18769.50000 0.216191
18769.68945 0.216069
18769.86914 0.215946
18770.06055 0.215828
18770.25000 0.215723
18770.43945 0.215616
18770.61914 0.21551
18770.81055 0.215405
18770.99023 0.215298
18771.17969 0.215192
18771.36914 0.215086
18771.55078 0.21498
18771.74023 0.214874
18771.92969 0.214768
18772.10938 0.214683
18772.30078 0.214613
18772.48047 0.214542
18772.66992 0.214472
18772.85938 0.214401
18773.03906 0.214331
18773.23047 0.21426
18773.41992 0.214189
18773.59961 0.214119
18773.78906 0.214048
18773.97070 0.213978
18774.16016 0.213884
18774.34961 0.213784
18774.52930 0.213686
18774.72070 0.213587
18774.91016 0.213489
18775.08984 0.213391
18775.27930 0.213291
18775.46094 0.213193
18775.65039 0.213094
18775.83984 0.212996
18776.02930 0.212906
18776.21094 0.212873
18776.40039 0.212841
18776.58008 0.212808
18776.76953 0.212775
18776.96094 0.212743
18777.14062 0.21271
18777.33008 0.212678
18777.51953 0.212645
18777.69922 0.212612
18777.89062 0.212579
18778.07031 0.212489
18778.25977 0.212309
18778.44922 0.212131
18778.63086 0.211953
18778.82031 0.211773
18779.00977 0.211595
18779.18945 0.211415
18779.38086 0.211237
18779.57031 0.211057
18779.75000 0.210879
18779.93945 0.210701
18780.13086 0.210553
18780.31055 0.210422
18780.50000 0.21029
18780.67969 0.210159
18780.86914 0.210027
18781.06055 0.209896
18781.24023 0.209765
18781.42969 0.209632
18781.61914 0.209502
18781.80078 0.209369
18781.99023 0.209238
18782.17969 0.209108
18782.35938 0.20898
18782.55078 0.208849
18782.73047 0.208721
18782.91992 0.208592
18783.10938 0.208462
18783.28906 0.208333
18783.48047 0.208203
18783.66992 0.208074
18783.84961 0.207945
18784.03906 0.207826
18784.23047 0.207743
18784.41016 0.207661
18784.59961 0.207579
18784.78906 0.207497
18784.97070 0.207415
18785.16016 0.207332
18785.33984 0.20725
18785.52930 0.207168
18785.72070 0.207086
18785.90039 0.207003
18786.08984 0.206908
18786.27930 0.206798
18786.46094 0.206689
18786.65039 0.206578
18786.83984 0.206469
18787.01953 0.206359
18787.21094 0.20625
18787.39062 0.206141
18787.58008 0.206031
18787.76953 0.205921
18787.96094 0.205811
18788.14062 0.205743
18788.33008 0.205687
18788.50977 0.205632
18788.69922 0.205576
18788.89062 0.205521
18789.07031 0.205466
18789.25977 0.205411
18789.44922 0.205355
18789.63086 0.2053
18789.82031 0.205244
18790.00977 0.205189
18790.18945 0.205117
18790.38086 0.205046
18790.57031 0.204975
18790.75000 0.204904
18790.93945 0.204833
18791.13086 0.204762
18791.31055 0.20469
18791.50000 0.20462
18791.68945 0.204548
18791.86914 0.204477
18792.06055 0.204401
18792.24023 0.204309
18792.42969 0.204218
18792.61914 0.204126
18792.80078 0.204035
18792.99023 0.203943
18793.17969 0.203852
18793.35938 0.203761
18793.55078 0.20367
18793.74023 0.203578
18793.91992 0.203487
18794.10938 0.203392
18794.28906 0.203296
18794.48047 0.203199
18794.66992 0.203102
18794.85938 0.203005
18795.03906 0.202908
18795.23047 0.202811
18795.41992 0.202714
18795.59961 0.202618
18795.78906 0.202521
18795.97070 0.202424
18796.16016 0.202442
18796.34961 0.202478
18796.53906 0.202513
18796.72070 0.202549
18796.91016 0.202585
18797.08984 0.20262
18797.27930 0.202656
18797.47070 0.202691
18797.65039 0.202727
18797.83984 0.202763
18798.02930 0.202792
18798.21094 0.202784
18798.40039 0.202776
18798.58984 0.202768
18798.76953 0.202761
18798.96094 0.202753
18799.15039 0.202745
18799.33008 0.202737
18799.51953 0.202729
18799.71094 0.202721
18799.89062 0.202713
18800.08008 0.202673
18800.26953 0.20259
18800.44922 0.202507
18800.64062 0.202424
18800.83008 0.202341
18801.00977 0.202258
18801.19922 0.202175
18801.38086 0.202092
18801.57031 0.202008
18801.75977 0.201926
18801.94922 0.201842
18802.13086 0.201802
18802.32031 0.201779
18802.50977 0.201756
18802.68945 0.201734
18802.88086 0.201711
18803.06055 0.201688
18803.25000 0.201665
18803.43945 0.201642
18803.61914 0.20162
18803.81055 0.201597
18804.00000 0.201574
18804.18945 0.201445
18804.36914 0.201317
18804.56055 0.201187
18804.74023 0.201058
18804.92969 0.200928
18805.11914 0.2008
18805.30078 0.20067
18805.49023 0.200542
18805.67969 0.200412
18805.86914 0.200282
18806.05078 0.200182
18806.24023 0.200156
18806.41992 0.200131
18806.60938 0.200106
18806.80078 0.200081
18806.98047 0.200056
18807.16992 0.200031
18807.35938 0.200006
18807.53906 0.199981
18807.73047 0.199956
18807.91992 0.199931
18808.09961 0.199891
18808.28906 0.199839
18808.48047 0.199787
18808.66016 0.199735
18808.84961 0.199683
18809.03906 0.199631
18809.22070 0.199579
18809.41016 0.199527
18809.59961 0.199475
18809.78906 0.199423
18809.97070 0.199371
18810.16016 0.199254
18810.33984 0.199127
18810.52930 0.198998
18810.72070 0.19887
18810.90039 0.198742
18811.08984 0.198614
18811.27930 0.198486
18811.46094 0.198358
18811.65039 0.198229
18811.83984 0.198102
18812.02930 0.197969
18812.21094 0.197816
18812.40039 0.197661
18812.58984 0.197507
18812.76953 0.197353
18812.96094 0.197198
18813.14062 0.197045
18813.33008 0.19689
18813.51953 0.196736
18813.71094 0.196582
18813.89062 0.196428
18814.08008 0.196284
18814.26953 0.196153
18814.44922 0.196021
18814.64062 0.195891
18814.83008 0.19576
18815.00977 0.19563
18815.19922 0.195499
18815.39062 0.195367
18815.57031 0.195238
18815.75977 0.195106
18815.94922 0.194976
18816.13086 0.194781
18816.32031 0.194559
18816.50977 0.19434
18816.68945 0.194118
18816.88086 0.193897
18817.07031 0.193678
18817.25000 0.193456
18817.43945 0.193237
18817.63086 0.193015
18817.81055 0.192793
18818.00000 0.192574
18818.18945 0.192282
18818.38086 0.19199
18818.56055 0.191701
18818.75000 0.191409
18818.92969 0.19112
18819.11914 0.190828
18819.31055 0.190536
18819.49023 0.190247
18819.67969 0.189954
18819.86914 0.189662
18820.05078 0.189351
18820.24023 0.188981
18820.42969 0.188615
18820.61914 0.188246
18820.80078 0.187876
18820.99023 0.18751
18821.17969 0.18714
18821.35938 0.186771
18821.55078 0.186405
18821.74023 0.186035
18821.91992 0.185666
18822.10938 0.185261
18822.30078 0.184825
18822.48047 0.184389
18822.66992 0.183957
18822.85938 0.183521
18823.03906 0.183089
18823.23047 0.182653
18823.41992 0.182216
18823.59961 0.181785
18823.78906 0.181348
18823.98047 0.180912
18824.16016 0.180487
18824.34961 0.180058
18824.53906 0.179628
18824.72070 0.179204
18824.91016 0.178775
18825.09961 0.178346
18825.28906 0.177921
18825.47070 0.177492
18825.66016 0.177063
18825.84961 0.176638
18826.02930 0.176206
18826.22070 0.175761
18826.41016 0.175321
18826.58984 0.174876
18826.77930 0.174432
18826.97070 0.173991
18827.15039 0.173547
18827.33984 0.173102
18827.52930 0.172662
18827.71094 0.172217
18827.90039 0.171772
18828.08984 0.171269
18828.27930 0.170689
18828.46094 0.170109
18828.65039 0.169535
18828.83984 0.168955
18829.01953 0.168375
18829.21094 0.167801
18829.40039 0.167222
18829.58008 0.166642
18829.76953 0.166062
18829.96094 0.165488
18830.14062 0.164864
18830.33008 0.164226
18830.51953 0.163595
18830.71094 0.162958
18830.89062 0.16232
18831.08008 0.161689
18831.26953 0.161051
18831.44922 0.160414
18831.64062 0.159783
18831.83008 0.159145
18832.00977 0.158498
18832.19922 0.157727
18832.39062 0.156965
18832.57031 0.156194
18832.75977 0.155423
18832.94922 0.154661
18833.13086 0.15389
18833.32031 0.153119
18833.50977 0.152357
18833.69922 0.151586
18833.88086 0.150815
18834.07031 0.149968
18834.25977 0.149001
18834.43945 0.148024
18834.63086 0.147046
18834.82031 0.14608
18835.00000 0.145103
18835.18945 0.144126
18835.38086 0.143149
18835.56055 0.142182
18835.75000 0.141205
18835.93945 0.140228
18836.11914 0.139347
18836.31055 0.138498
18836.50000 0.13765
18836.68945 0.136801
18836.86914 0.135961
18837.06055 0.135112
18837.25000 0.134264
18837.42969 0.133424
18837.61914 0.132576
18837.81055 0.131727
18838.00000 0.130879
18838.17969 0.129917
18838.36914 0.128943
18838.56055 0.127969
18838.74023 0.126994
18838.92969 0.12603
18839.11914 0.125056
18839.30078 0.124082
18839.49023 0.123118
18839.67969 0.122144
18839.86914 0.12117
18840.05078 0.12025
18840.24023 0.119478
18840.42969 0.118698
18840.60938 0.117918
18840.80078 0.117138
18840.99023 0.116366
18841.16992 0.115586
18841.35938 0.114806
18841.55078 0.114026
18841.73047 0.113254
18841.91992 0.112474
18842.10938 0.111665
18842.30078 0.110837
18842.48047 0.110016
18842.66992 0.109187
18842.85938 0.108359
18843.03906 0.10753
18843.23047 0.10671
18843.41992 0.105881
18843.60938 0.105052
18843.78906 0.104223
18843.98047 0.103403
18844.16992 0.102741
18844.34961 0.102101
18844.53906 0.101461
18844.73047 0.100828
18844.91016 0.100188
18845.09961 0.099548
18845.28906 0.098908
18845.47070 0.098275
18845.66016 0.097635
18845.84961 0.096995
18846.03906 0.096338
18846.22070 0.095608
18846.41016 0.094886
18846.59961 0.094156
18846.78906 0.093427
18846.97070 0.092697
18847.16016 0.091975
18847.34961 0.091246
18847.52930 0.090516
18847.72070 0.089787
18847.91016 0.089065
18848.08984 0.088295
18848.27930 0.087485
18848.47070 0.086674
18848.66016 0.085864
18848.83984 0.085062
18849.02930 0.084252
18849.22070 0.083442
18849.40039 0.082632
18849.58984 0.081822
18849.77930 0.08102
18849.96094 0.08021
18850.15039 0.0794
18850.33984 0.07859
18850.52930 0.077788
18850.71094 0.076978
18850.90039 0.076168
18851.08984 0.075358
18851.27930 0.074548
18851.46094 0.073746
18851.65039 0.072936
18851.83984 0.072126
18852.01953 0.071339
18852.21094 0.070708
18852.40039 0.070085
18852.58008 0.069454
18852.76953 0.068824
18852.96094 0.068194
18853.15039 0.067564
18853.33008 0.06694
18853.51953 0.06631
18853.71094 0.06568
18853.89062 0.065049
18854.08008 0.064435
18854.26953 0.063846
18854.46094 0.063251
18854.64062 0.062656
18854.83008 0.062061
18855.01953 0.061466
18855.21094 0.060871
18855.39062 0.060282
18855.58008 0.059687
18855.76953 0.059092
18855.94922 0.058498
18856.14062 0.057881
18856.33008 0.057264
18856.50977 0.05664
18856.69922 0.056016
18856.89062 0.055392
18857.08008 0.054768
18857.25977 0.054144
18857.44922 0.053527
18857.64062 0.052903
18857.82031 0.052279
18858.00977 0.051665
18858.19922 0.051197
18858.39062 0.050729
18858.57031 0.050266
18858.75977 0.049798
18858.94922 0.04933
18859.13086 0.048861
18859.32031 0.048393
18859.50977 0.047925
18859.69922 0.047462
18859.88086 0.046994
18860.07031 0.046493
18860.25977 0.045936
18860.44922 0.045379
18860.63086 0.044822
18860.82031 0.044272
18861.00977 0.043715
18861.18945 0.043158
18861.38086 0.042602
18861.57031 0.042045
18861.75977 0.041488
18861.93945 0.040938
18862.13086 0.04048
18862.32031 0.040068
18862.50000 0.039656
18862.68945 0.039244
18862.88086 0.038832
18863.07031 0.03842
18863.25000 0.038012
18863.43945 0.0376
18863.63086 0.037188
18863.81055 0.036776
18864.00000 0.036364
18864.18945 0.035949
18864.38086 0.035535
18864.56055 0.035125
18864.75000 0.03471
18864.93945 0.034296
18865.11914 0.033882
18865.31055 0.033467
18865.50000 0.033053
18865.68945 0.032638
18865.86914 0.032224
18866.06055 0.031854
18866.25000 0.031564
18866.43945 0.031274
18866.61914 0.030983
18866.81055 0.030693
18867.00000 0.030403
18867.18945 0.030113
18867.36914 0.029825
18867.56055 0.029535
18867.75000 0.029245
18867.92969 0.028955
18868.11914 0.02864
18868.31055 0.028313
18868.50000 0.027985
18868.67969 0.027658
18868.86914 0.02733
18869.06055 0.027006
18869.24023 0.026679
18869.42969 0.026351
18869.61914 0.026023
18869.81055 0.025696
18869.99023 0.025368
18870.17969 0.025138
18870.36914 0.02491
18870.56055 0.024682
18870.74023 0.024456
18870.92969 0.024228
18871.11914 0.024001
18871.30078 0.023773
18871.49023 0.023545
18871.67969 0.023317
18871.86914 0.023089
18872.05078 0.022863
18872.24023 0.022641
18872.42969 0.022422
18872.61914 0.0222
18872.80078 0.021979
18872.99023 0.021757
18873.17969 0.021535
18873.36914 0.021314
18873.55078 0.021092
18873.74023 0.02087
18873.92969 0.020649
18874.11914 0.020411
18874.30078 0.020163
18874.49023 0.019918
18874.67969 0.01967
18874.85938 0.019422
18875.05078 0.019174
18875.24023 0.018926
18875.42969 0.018678
18875.60938 0.018431
18875.80078 0.018183
18875.99023 0.017935
18876.17969 0.017767
18876.35938 0.017604
18876.55078 0.017441
18876.74023 0.01728
18876.91992 0.017117
18877.10938 0.016955
18877.30078 0.016792
18877.49023 0.016629
18877.66992 0.016466
18877.85938 0.016303
18878.05078 0.016139
18878.24023 0.015972
18878.41992 0.015805
18878.60938 0.015637
18878.80078 0.01547
18878.99023 0.015302
18879.16992 0.015135
18879.35938 0.014968
18879.55078 0.014802
18879.73047 0.014635
18879.91992 0.014467
18880.10938 0.01432
18880.30078 0.014188
18880.48047 0.014056
18880.66992 0.013924
18880.85938 0.013792
18881.05078 0.01366
18881.23047 0.013528
18881.41992 0.013395
18881.60938 0.013263
18881.80078 0.013131
18881.98047 0.012999
18882.16992 0.012959
18882.35938 0.012927
18882.55078 0.012896
18882.73047 0.012864
18882.91992 0.012833
18883.10938 0.012801
18883.28906 0.01277
18883.48047 0.012738
18883.66992 0.012707
18883.85938 0.012675
18884.03906 0.01262
18884.23047 0.012493
18884.41992 0.012366
18884.60938 0.012238
18884.78906 0.012111
18884.98047 0.011984
18885.16992 0.011857
18885.35938 0.011729
18885.53906 0.011602
18885.73047 0.011475
18885.91992 0.011347
18886.10938 0.011211
18886.28906 0.011069
18886.48047 0.010927
18886.66992 0.010785
18886.85938 0.010642
18887.03906 0.0105
18887.23047 0.010358
18887.41992 0.010216
18887.60938 0.010073
18887.78906 0.009931
18887.98047 0.009789
18888.16992 0.009665
18888.35938 0.009542
18888.53906 0.00942
18888.73047 0.009297
18888.91992 0.009175
18889.10938 0.009052
18889.28906 0.00893
18889.48047 0.008807
18889.66992 0.008685
18889.85938 0.008562
18890.03906 0.008453
18890.23047 0.00838
18890.41992 0.008308
18890.60938 0.008235
18890.78906 0.008163
18890.98047 0.008091
18891.16992 0.008018
18891.35938 0.007946
18891.53906 0.007873
18891.73047 0.007801
18891.91992 0.007729
18892.10938 0.007688
18892.28906 0.007672
18892.48047 0.007656
18892.66992 0.007641
18892.85938 0.007625
18893.03906 0.007609
18893.23047 0.007593
18893.41992 0.007577
18893.60938 0.007561
18893.78906 0.007545
18893.98047 0.00753
18894.16992 0.007506
18894.35938 0.007482
18894.53906 0.007458
18894.73047 0.007435
18894.91992 0.007411
18895.10938 0.007387
18895.28906 0.007363
18895.48047 0.007339
18895.66992 0.007315
18895.85938 0.007291
18896.03906 0.007257
18896.23047 0.007191
18896.41992 0.007126
18896.60938 0.00706
18896.78906 0.006995
18896.98047 0.006929
18897.16992 0.006863
18897.35938 0.006798
18897.53906 0.006732
18897.73047 0.006667
18897.91992 0.006601
18898.10938 0.006506
18898.28906 0.006389
18898.48047 0.006272
18898.66992 0.006155
18898.85938 0.006038
18899.03906 0.005922
18899.23047 0.005805
18899.41992 0.005688
18899.60938 0.005571
18899.78906 0.005454
18899.98047 0.005337
18900.16992 0.005216
18900.35938 0.005095
18900.55078 0.004973
18900.73047 0.004852
18900.91992 0.004731
18901.10938 0.00461
18901.30078 0.004489
18901.48047 0.004368
18901.66992 0.004247
18901.85938 0.004126
18902.05078 0.004046
18902.23047 0.004088
18902.41992 0.00413
18902.60938 0.004172
18902.80078 0.004215
18902.98047 0.004257
18903.16992 0.004299
18903.35938 0.004341
18903.55078 0.004383
18903.73047 0.004426
18903.91992 0.004468
18904.10938 0.004418
18904.30078 0.004305
18904.49023 0.004192
18904.66992 0.004078
18904.85938 0.003965
18905.05078 0.003852
18905.24023 0.003739
18905.41992 0.003625
18905.60938 0.003512
18905.80078 0.003399
18905.99023 0.003286
18906.16992 0.00332
18906.35938 0.003365
18906.55078 0.00341
18906.74023 0.003456
18906.92969 0.003502
18907.10938 0.003547
18907.30078 0.003593
18907.49023 0.003638
18907.67969 0.003684
18907.85938 0.003729
18908.05078 0.003752
18908.24023 0.003714
18908.42969 0.003677
18908.60938 0.003639
18908.80078 0.003602
18908.99023 0.003564
18909.17969 0.003526
18909.36914 0.003489
18909.55078 0.003451
18909.74023 0.003413
18909.92969 0.003376
18910.11914 0.003354
18910.30078 0.003341
18910.49023 0.003328
18910.67969 0.003315
18910.86914 0.003302
18911.05078 0.003289
18911.24023 0.003276
18911.42969 0.003263
18911.61914 0.00325
18911.80078 0.003238
18911.99023 0.003225
18912.17969 0.003175
18912.36914 0.003124
18912.55078 0.003073
18912.74023 0.003021
18912.92969 0.002969
18913.11914 0.002918
18913.31055 0.002867
18913.49023 0.002816
18913.67969 0.002764
18913.86914 0.002713
18914.06055 0.002655
18914.24023 0.00258
18914.42969 0.002504
18914.61914 0.002428
18914.81055 0.002353
18915.00000 0.002278
18915.17969 0.002203
18915.36914 0.002128
18915.56055 0.002053
18915.75000 0.001978
18915.92969 0.001903
18916.11914 0.001934
18916.31055 0.002022
18916.50000 0.00211
18916.68945 0.002198
18916.86914 0.002286
18917.06055 0.002374
18917.25000 0.002462
18917.43945 0.00255
18917.61914 0.002639
18917.81055 0.002727
18918.00000 0.002816
18918.18945 0.002768
18918.38086 0.00272
18918.56055 0.002673
18918.75000 0.002625
18918.93945 0.002577
18919.13086 0.002529
18919.31055 0.002482
18919.50000 0.002434
18919.68945 0.002386
18919.88086 0.002339
18920.06055 0.002283
18920.25000 0.002211
18920.43945 0.002139
18920.63086 0.002068
18920.82031 0.001997
18921.00000 0.001925
18921.18945 0.001854
18921.38086 0.001783
18921.57031 0.001711
18921.75977 0.001639
18921.93945 0.001568
18922.13086 0.001559
18922.32031 0.001576
18922.50977 0.001594
18922.68945 0.001612
18922.88086 0.00163
18923.07031 0.001647
18923.25977 0.001665
18923.44922 0.001683
18923.63086 0.0017
18923.82031 0.001718
18924.00977 0.001738
18924.19922 0.001795
18924.38086 0.001852
18924.57031 0.001909
18924.75977 0.001966
18924.94922 0.002022
18925.14062 0.00208
18925.32031 0.002137
18925.50977 0.002194
18925.69922 0.002251
18925.89062 0.002307
18926.07031 0.002314
18926.25977 0.002242
18926.44922 0.002171
18926.64062 0.0021
18926.83008 0.002029
18927.00977 0.001958
18927.19922 0.001886
18927.39062 0.001815
18927.58008 0.001744
18927.76953 0.001673
18927.94922 0.001602
18928.14062 0.001573
18928.33008 0.001558
18928.51953 0.001543
18928.71094 0.001528
18928.89062 0.001513
18929.08008 0.001498
18929.26953 0.001483
18929.46094 0.001468
18929.64062 0.001453
18929.83008 0.001438
18930.01953 0.001429
18930.21094 0.00147
18930.40039 0.001511
18930.58008 0.001552
18930.76953 0.001593
18930.96094 0.001634
18931.15039 0.001675
18931.33984 0.001716
18931.51953 0.001757
18931.71094 0.001798
18931.90039 0.001839
18932.08984 0.001832
18932.27930 0.001769
18932.46094 0.001706
18932.65039 0.001643
18932.83984 0.00158
18933.02930 0.001516
18933.21094 0.001454
18933.40039 0.001391
18933.58984 0.001328
18933.77930 0.001265
18933.97070 0.001201
18934.15039 0.001182
18934.33984 0.001171
18934.52930 0.001161
18934.72070 0.00115
18934.91016 0.00114
18935.08984 0.001129
18935.27930 0.001119
18935.47070 0.001108
18935.66016 0.001098
18935.84961 0.001087
18936.02930 0.001088
18936.22070 0.001144
18936.41016 0.001199
18936.59961 0.001254
18936.78906 0.001309
18936.97070 0.001364
18937.16016 0.00142
18937.34961 0.001475
18937.53906 0.00153
18937.72070 0.001585
18937.91016 0.00164
18938.09961 0.001632
18938.28906 0.001568
18938.48047 0.001504
18938.66016 0.001441
18938.84961 0.001376
18939.03906 0.001313
18939.23047 0.001249
18939.41992 0.001185
18939.60938 0.001121
18939.78906 0.001057
18939.98047 0.000994
18940.16992 0.000929
18940.35938 0.000865
18940.53906 0.000799
18940.73047 0.000735
18940.91992 0.00067
18941.10938 0.000606
18941.30078 0.00054
18941.48047 0.000476
18941.66992 0.000411
20835.83594 0.0
