# %ECSV 0.9
# ---
# datatype:
# - {name: wavelength, unit: Angstrom, datatype: float32}
# - {name: response, datatype: float32}
# meta: !!omap
# - {band_name: F160W}
# - {group_name: NICMOS3}
wavelength response
12161.81641 0.0
13513.12988 0.000402
13513.83008 0.000406
13514.51953 0.000409
13515.20996 0.000411
13515.90039 0.000411
13516.59961 0.000412
13517.29004 0.000412
13517.98047 0.000412
13518.67969 0.000412
13519.37012 0.000413
13520.05957 0.000414
13520.75977 0.000421
13521.45020 0.000428
13522.13965 0.000435
13522.83008 0.000443
13523.53027 0.00045
13524.21973 0.000457
13524.91992 0.000464
13525.61035 0.000471
13526.29980 0.000479
13527.00000 0.000486
13527.69043 0.000493
13528.37988 0.0005
13529.08008 0.000507
13529.76953 0.000514
13530.45996 0.000521
13531.16016 0.000527
13531.84961 0.000534
13532.54004 0.00054
13533.24023 0.000547
13533.92969 0.000553
13534.62988 0.000559
13535.32031 0.000566
13536.00977 0.000572
13536.70996 0.000579
13537.40039 0.000585
13538.08984 0.000592
13538.79004 0.000598
13539.48047 0.000605
13540.17969 0.000611
13540.87012 0.000614
13541.55957 0.000617
13542.25977 0.00062
13542.95020 0.000623
13543.65039 0.000626
13544.33984 0.000629
13545.04004 0.000632
13545.73047 0.000642
13546.41992 0.000651
13547.12012 0.000661
13547.80957 0.000671
13548.50977 0.00068
13549.20020 0.00069
13549.90039 0.0007
13550.58984 0.000706
13551.29004 0.000712
13551.98047 0.000718
13552.67969 0.000723
13553.37012 0.000729
13554.07031 0.000735
13554.75977 0.000741
13555.45996 0.000749
13556.15039 0.000758
13556.84961 0.000768
13557.54004 0.000777
13558.24023 0.000787
13558.92969 0.000796
13559.62988 0.000806
13560.32031 0.000816
13561.01953 0.000828
13561.70996 0.000839
13562.41016 0.000851
13563.09961 0.000862
13563.79980 0.000874
13564.49023 0.000885
13565.19043 0.000896
13565.87988 0.000904
13566.58008 0.000912
13567.26953 0.000921
13567.96973 0.000929
13568.66992 0.000937
13569.36035 0.000945
13570.05957 0.000954
13570.75000 0.000963
13571.45020 0.000972
13572.13965 0.000981
13572.83984 0.000991
13573.54004 0.001
13574.23047 0.001009
13574.92969 0.001018
13575.62012 0.001029
13576.32031 0.00104
13577.00977 0.001051
13577.70996 0.001063
13578.41016 0.001074
13579.09961 0.001085
13579.79980 0.001096
13580.50000 0.001109
13581.19043 0.001122
13581.88965 0.001136
13582.58008 0.001149
13583.28027 0.001162
13583.98047 0.001176
13584.66992 0.001189
13585.37012 0.001203
13586.07031 0.001218
13586.75977 0.001233
13587.45996 0.001248
13588.15039 0.001262
13588.84961 0.001277
13589.54980 0.001292
13590.24023 0.001305
13590.94043 0.001314
13591.63965 0.001324
13592.33008 0.001333
13593.03027 0.001343
13593.73047 0.001352
13594.41992 0.001362
13595.12012 0.001372
13595.82031 0.00139
13596.51953 0.001407
13597.20996 0.001425
13597.91016 0.001442
13598.61035 0.00146
13599.29980 0.001477
13600.00000 0.001495
13600.70020 0.001512
13601.40039 0.001529
13602.08984 0.001546
13602.79004 0.001563
13603.49023 0.00158
13604.19043 0.001597
13604.87988 0.001614
13605.58008 0.001634
13606.28027 0.001654
13606.96973 0.001674
13607.66992 0.001693
13608.37012 0.001713
13609.07031 0.001733
13609.76953 0.001753
13610.45996 0.001772
13611.16016 0.001791
13611.86035 0.00181
13612.55957 0.001829
13613.25000 0.001848
13613.95020 0.001867
13614.65039 0.001885
13615.34961 0.001907
13616.04980 0.001932
13616.74023 0.001957
13617.44043 0.001982
13618.13965 0.002007
13618.83984 0.002033
13619.54004 0.002058
13620.23047 0.002081
13620.92969 0.0021
13621.62988 0.00212
13622.33008 0.00214
13623.03027 0.002159
13623.73047 0.002179
13624.41992 0.002198
13625.12012 0.002219
13625.82031 0.002244
13626.51953 0.002269
13627.21973 0.002294
13627.91992 0.002319
13628.62012 0.002344
13629.30957 0.002369
13630.00977 0.002394
13630.70996 0.002415
13631.41016 0.002437
13632.11035 0.002458
13632.80957 0.00248
13633.50977 0.002502
13634.20996 0.002523
13634.91016 0.002545
13635.59961 0.002572
13636.29980 0.0026
13637.00000 0.002628
13637.70020 0.002656
13638.40039 0.002684
13639.09961 0.002712
13639.79980 0.00274
13640.50000 0.00277
13641.20020 0.0028
13641.90039 0.00283
13642.59961 0.00286
13643.29004 0.00289
13643.99023 0.00292
13644.69043 0.00295
13645.38965 0.002982
13646.08984 0.003017
13646.79004 0.003051
13647.49023 0.003085
13648.19043 0.00312
13648.88965 0.003154
13649.58984 0.003188
13650.29004 0.003221
13650.99023 0.003251
13651.69043 0.003281
13652.38965 0.003311
13653.08984 0.003341
13653.79004 0.00337
13654.49023 0.0034
13655.19043 0.003431
13655.88965 0.003465
13656.58984 0.003499
13657.29004 0.003532
13657.99023 0.003566
13658.69043 0.0036
13659.38965 0.003633
13660.08984 0.003666
13660.79004 0.003696
13661.49023 0.003726
13662.19043 0.003757
13662.88965 0.003787
13663.58984 0.003817
13664.29004 0.003847
13664.99023 0.003877
13665.69043 0.003914
13666.38965 0.00395
13667.08984 0.003987
13667.79980 0.004024
13668.50000 0.00406
13669.20020 0.004097
13669.90039 0.004134
13670.59961 0.004171
13671.29980 0.004208
13672.00000 0.004245
13672.70020 0.004281
13673.40039 0.004318
13674.09961 0.004355
13674.79980 0.004392
13675.50000 0.004427
13676.20996 0.004461
13676.91016 0.004495
13677.61035 0.004529
13678.30957 0.004563
13679.00977 0.004597
13679.70996 0.004632
13680.41016 0.004673
13681.11035 0.004719
13681.82031 0.004765
13682.51953 0.004811
13683.21973 0.004857
13683.91992 0.004904
13684.62012 0.00495
13685.32031 0.004994
13686.01953 0.005035
13686.73047 0.005076
13687.42969 0.005118
13688.12988 0.005159
13688.83008 0.005201
13689.53027 0.005242
13690.24023 0.005283
13690.94043 0.005323
13691.63965 0.005364
13692.33984 0.005404
13693.04004 0.005445
13693.74023 0.005485
13694.45020 0.005526
13695.15039 0.005566
13695.84961 0.005607
13696.54980 0.005648
13697.25000 0.005689
13697.95996 0.005729
13698.66016 0.00577
13699.36035 0.005811
13700.05957 0.005852
13700.76953 0.005896
13701.46973 0.005939
13702.16992 0.005983
13702.87012 0.006026
13703.58008 0.00607
13704.28027 0.006114
13704.98047 0.006157
13705.67969 0.006201
13706.38965 0.006244
13707.08984 0.006288
13707.79004 0.006332
13708.49023 0.006375
13709.20020 0.006419
13709.90039 0.006462
13710.59961 0.006508
13711.29980 0.006554
13712.00977 0.0066
13712.70996 0.006646
13713.41016 0.006692
13714.12012 0.006738
13714.82031 0.006785
13715.51953 0.00683
13716.23047 0.006875
13716.92969 0.00692
13717.62988 0.006965
13718.33984 0.00701
13719.04004 0.007055
13719.74023 0.0071
13720.45020 0.007147
13721.15039 0.007197
13721.84961 0.007246
13722.55957 0.007295
13723.25977 0.007344
13723.95996 0.007393
13724.66992 0.007442
13725.37012 0.007486
13726.07031 0.007527
13726.78027 0.007568
13727.48047 0.007608
13728.17969 0.007649
13728.88965 0.00769
13729.58984 0.00773
13730.29980 0.007775
13731.00000 0.007824
13731.70020 0.007874
13732.41016 0.007923
13733.11035 0.007973
13733.82031 0.008022
13734.51953 0.008072
13735.21973 0.00812
13735.92969 0.008165
13736.62988 0.008211
13737.33984 0.008256
13738.04004 0.008302
13738.75000 0.008347
13739.45020 0.008393
13740.15039 0.008439
13740.86035 0.008488
13741.55957 0.008538
13742.26953 0.008587
13742.96973 0.008636
13743.67969 0.008686
13744.37988 0.008735
13745.08008 0.008786
13745.79004 0.008846
13746.49023 0.008907
13747.20020 0.008967
13747.90039 0.009027
13748.61035 0.009088
13749.30957 0.009148
13750.01953 0.009209
13750.71973 0.00926
13751.42969 0.009311
13752.12988 0.009362
13752.83984 0.009413
13753.54004 0.009464
13754.25000 0.009516
13754.95020 0.009567
13755.66016 0.009618
13756.36035 0.009669
13757.07031 0.00972
13757.76953 0.009771
13758.48047 0.009823
13759.17969 0.009874
13759.88965 0.009925
13760.58984 0.009984
13761.29980 0.010045
13762.00977 0.010106
13762.70996 0.010167
13763.41992 0.010227
13764.12012 0.010288
13764.83008 0.010349
13765.53027 0.010407
13766.24023 0.010463
13766.95020 0.010519
13767.65039 0.010576
13768.36035 0.010632
13769.05957 0.010689
13769.76953 0.010745
13770.46973 0.010809
13771.17969 0.010875
13771.88965 0.010942
13772.58984 0.011008
13773.29980 0.011075
13774.00000 0.011142
13774.70996 0.011208
13775.41992 0.011274
13776.12012 0.01134
13776.83008 0.011405
13777.54004 0.01147
13778.24023 0.011535
13778.95020 0.011601
13779.65039 0.011666
13780.36035 0.011734
13781.07031 0.011806
13781.76953 0.011877
13782.48047 0.011948
13783.19043 0.01202
13783.88965 0.012091
13784.59961 0.012163
13785.30957 0.012235
13786.00977 0.01231
13786.71973 0.012385
13787.42969 0.012459
13788.12988 0.012534
13788.83984 0.012608
13789.54980 0.012683
13790.25000 0.012758
13790.95996 0.012834
13791.66992 0.012909
13792.37012 0.012985
13793.08008 0.013061
13793.79004 0.013136
13794.50000 0.013212
13795.20020 0.013291
13795.91016 0.013376
13796.62012 0.013462
13797.33008 0.013548
13798.03027 0.013633
13798.74023 0.013719
13799.45020 0.013805
13800.15039 0.013891
13800.86035 0.01398
13801.57031 0.014069
13802.28027 0.014159
13802.98047 0.014248
13803.69043 0.014337
13804.40039 0.014426
13805.11035 0.014517
13805.82031 0.014616
13806.51953 0.014715
13807.23047 0.014814
13807.94043 0.014913
13808.65039 0.015012
13809.34961 0.015111
13810.05957 0.015212
13810.76953 0.015326
13811.48047 0.01544
13812.19043 0.015555
13812.88965 0.015669
13813.59961 0.015784
13814.30957 0.015898
13815.01953 0.016013
13815.73047 0.016135
13816.44043 0.016259
13817.13965 0.016382
13817.84961 0.016505
13818.55957 0.016628
13819.26953 0.016751
13819.98047 0.016874
13820.69043 0.016995
13821.38965 0.017116
13822.09961 0.017238
13822.80957 0.017359
13823.51953 0.01748
13824.23047 0.017601
13824.94043 0.017723
13825.65039 0.017848
13826.34961 0.017974
13827.05957 0.0181
13827.76953 0.018225
13828.48047 0.018351
13829.19043 0.018477
13829.90039 0.018603
13830.61035 0.018743
13831.32031 0.018885
13832.03027 0.019027
13832.74023 0.01917
13833.44043 0.019312
13834.15039 0.019455
13834.86035 0.019597
13835.57031 0.019753
13836.28027 0.019913
13836.99023 0.020073
13837.70020 0.020232
13838.41016 0.020392
13839.12012 0.020552
13839.83008 0.020712
13840.54004 0.020874
13841.25000 0.021038
13841.95996 0.021201
13842.66992 0.021365
13843.37988 0.021529
13844.08008 0.021693
13844.79004 0.021856
13845.50000 0.022034
13846.20996 0.022216
13846.91992 0.022398
13847.62988 0.022581
13848.33984 0.022763
13849.04980 0.022946
13849.75977 0.023128
13850.46973 0.023313
13851.17969 0.023499
13851.88965 0.023684
13852.59961 0.02387
13853.30957 0.024056
13854.01953 0.024242
13854.73047 0.024427
13855.45020 0.024619
13856.16016 0.024812
13856.87012 0.025006
13857.58008 0.0252
13858.29004 0.025394
13859.00000 0.025589
13859.70996 0.025783
13860.41992 0.025989
13861.12988 0.026204
13861.83984 0.026419
13862.54980 0.026634
13863.25977 0.026849
13863.96973 0.027064
13864.67969 0.02728
13865.38965 0.027513
13866.09961 0.02776
13866.80957 0.028007
13867.51953 0.028255
13868.24023 0.028502
13868.95020 0.02875
13869.66016 0.028998
13870.37012 0.029264
13871.08008 0.029547
13871.79004 0.029831
13872.50000 0.030115
13873.20996 0.030398
13873.91992 0.030682
13874.63965 0.030966
13875.34961 0.031263
13876.05957 0.031575
13876.76953 0.031887
13877.48047 0.032198
13878.19043 0.03251
13878.90039 0.032822
13879.62012 0.033134
13880.33008 0.033449
13881.04004 0.033767
13881.75000 0.034085
13882.45996 0.034403
13883.16992 0.034721
13883.87988 0.03504
13884.59961 0.035358
13885.30957 0.035686
13886.01953 0.036026
13886.73047 0.036366
13887.44043 0.036707
13888.16016 0.037047
13888.87012 0.037388
13889.58008 0.037729
13890.29004 0.038071
13891.00000 0.038416
13891.71973 0.038761
13892.42969 0.039106
13893.13965 0.039451
13893.84961 0.039796
13894.55957 0.040141
13895.28027 0.040491
13895.99023 0.040847
13896.70020 0.041204
13897.41016 0.04156
13898.12988 0.041917
13898.83984 0.042273
13899.54980 0.04263
13900.25977 0.043007
13900.98047 0.04342
13901.69043 0.043833
13902.40039 0.044246
13903.11035 0.044658
13903.83008 0.045072
13904.54004 0.045485
13905.25000 0.045929
13905.96973 0.046429
13906.67969 0.046929
13907.38965 0.047429
13908.09961 0.047929
13908.82031 0.048429
13909.53027 0.048929
13910.24023 0.049431
13910.95996 0.049933
13911.66992 0.050436
13912.37988 0.050938
13913.09961 0.051441
13913.80957 0.051944
13914.51953 0.052447
13915.24023 0.052963
13915.95020 0.053503
13916.66016 0.054044
13917.37988 0.054585
13918.08984 0.055127
13918.79980 0.055668
13919.51953 0.056209
13920.23047 0.056756
13920.94043 0.05731
13921.66016 0.057865
13922.37012 0.058421
13923.08008 0.058976
13923.79980 0.059532
13924.50977 0.060088
13925.23047 0.060653
13925.94043 0.06124
13926.65039 0.061827
13927.37012 0.062413
13928.08008 0.063
13928.79980 0.063587
13929.50977 0.064175
13930.21973 0.064771
13930.94043 0.065388
13931.65039 0.066004
13932.37012 0.066621
13933.08008 0.067238
13933.79004 0.067855
13934.50977 0.068472
13935.21973 0.069104
13935.94043 0.069768
13936.65039 0.070431
13937.37012 0.071096
13938.08008 0.071759
13938.79980 0.072424
13939.50977 0.073089
13940.21973 0.073768
13940.94043 0.074481
13941.65039 0.075193
13942.37012 0.075906
13943.08008 0.07662
13943.79980 0.077333
13944.50977 0.078046
13945.23047 0.078767
13945.94043 0.079503
13946.66016 0.080239
13947.37012 0.080975
13948.08984 0.081712
13948.79980 0.082448
13949.51953 0.083186
13950.23047 0.083939
13950.95020 0.084726
13951.66016 0.085514
13952.37988 0.086302
13953.08984 0.087089
13953.80957 0.087878
13954.51953 0.088666
13955.24023 0.089454
13955.95996 0.090236
13956.66992 0.09102
13957.38965 0.091804
13958.09961 0.092587
13958.82031 0.093372
13959.53027 0.094156
13960.25000 0.094952
13960.95996 0.095766
13961.67969 0.096582
13962.40039 0.097398
13963.11035 0.098214
13963.83008 0.09903
13964.54004 0.099846
13965.25977 0.100639
13965.96973 0.101388
13966.69043 0.102137
13967.41016 0.102888
13968.12012 0.103638
13968.83984 0.104388
13969.54980 0.105138
13970.26953 0.10589
13970.99023 0.106645
13971.70020 0.107399
13972.41992 0.108155
13973.13965 0.10891
13973.84961 0.109666
13974.57031 0.110421
13975.29004 0.111145
13976.00000 0.11182
13976.71973 0.112494
13977.42969 0.11317
13978.15039 0.113846
13978.87012 0.114521
13979.58008 0.115196
13980.29980 0.115854
13981.01953 0.116486
13981.73047 0.117119
13982.45020 0.117751
13983.16992 0.118384
13983.87988 0.119017
13984.59961 0.11965
13985.32031 0.120289
13986.04004 0.120937
13986.75000 0.121586
13987.46973 0.122234
13988.19043 0.122882
13988.90039 0.12353
13989.62012 0.124179
13990.33984 0.124835
13991.04980 0.125497
13991.76953 0.126161
13992.49023 0.126824
13993.20996 0.127488
13993.91992 0.128151
13994.63965 0.128816
13995.36035 0.129465
13996.08008 0.130099
13996.79004 0.130734
13997.50977 0.131368
13998.23047 0.132003
13998.95020 0.132639
13999.66016 0.133273
14000.37988 0.133873
14001.09961 0.134442
14001.82031 0.135012
14002.54004 0.135581
14003.25000 0.136151
14003.96973 0.13672
14004.69043 0.13729
14005.41016 0.137793
14006.12012 0.138244
14006.83984 0.138696
14007.55957 0.139147
14008.28027 0.139599
14009.00000 0.140051
14009.70996 0.140503
14010.42969 0.140903
14011.15039 0.141268
14011.87012 0.141633
14012.58984 0.141998
14013.30957 0.142364
14014.03027 0.14273
14014.74023 0.143095
14015.45996 0.143412
14016.17969 0.143703
14016.90039 0.143993
14017.62012 0.144283
14018.33984 0.144574
14019.04980 0.144864
14019.76953 0.145155
14020.49023 0.145411
14021.20996 0.145652
14021.92969 0.145892
14022.65039 0.146133
14023.37012 0.146374
14024.08984 0.146614
14024.79980 0.146855
14025.51953 0.147046
14026.24023 0.147217
14026.95996 0.147389
14027.67969 0.14756
14028.40039 0.147732
14029.12012 0.147904
14029.83984 0.148075
14030.55957 0.148217
14031.28027 0.148349
14032.00000 0.148481
14032.71973 0.148614
14033.44043 0.148746
14034.15039 0.148878
14034.87012 0.149011
14035.58984 0.1491
14036.30957 0.149181
14037.03027 0.149262
14037.75000 0.149343
14038.46973 0.149423
14039.19043 0.149504
14039.91016 0.149585
14040.62988 0.149624
14041.34961 0.149658
14042.07031 0.149691
14042.79004 0.149725
14043.50977 0.149758
14044.23047 0.149791
14044.95020 0.149825
14045.66992 0.14982
14046.38965 0.149813
14047.11035 0.149806
14047.83008 0.149799
14048.54980 0.149791
14049.26953 0.149784
14049.99023 0.149777
14050.70996 0.149742
14051.42969 0.149707
14052.15039 0.149672
14052.87012 0.149637
14053.58984 0.149602
14054.30957 0.149567
14055.03027 0.149531
14055.75000 0.149459
14056.46973 0.149387
14057.20020 0.149315
14057.91992 0.149243
14058.63965 0.149172
14059.36035 0.1491
14060.08008 0.149026
14060.79980 0.148936
14061.51953 0.148846
14062.24023 0.148756
14062.95996 0.148665
14063.67969 0.148575
14064.40039 0.148485
14065.12012 0.148392
14065.83984 0.148288
14066.57031 0.148183
14067.29004 0.148079
14068.00977 0.147974
14068.73047 0.147869
14069.45020 0.147765
14070.16992 0.147658
14070.88965 0.147543
14071.62012 0.147429
14072.33984 0.147314
14073.05957 0.147199
14073.78027 0.147085
14074.50000 0.14697
14075.21973 0.146856
14075.94043 0.146744
14076.66992 0.146632
14077.38965 0.14652
14078.11035 0.146408
14078.83008 0.146296
14079.54980 0.146184
14080.26953 0.146067
14081.00000 0.145941
14081.71973 0.145815
14082.44043 0.145689
14083.16016 0.145563
14083.87988 0.145436
14084.61035 0.14531
14085.33008 0.145187
14086.04980 0.145067
14086.76953 0.144948
14087.49023 0.144828
14088.21973 0.144708
14088.94043 0.144589
14089.66016 0.144469
14090.37988 0.144352
14091.09961 0.144239
14091.83008 0.144125
14092.54980 0.144011
14093.26953 0.143898
14093.99023 0.143784
14094.71973 0.14367
14095.44043 0.143553
14096.16016 0.143434
14096.87988 0.143315
14097.61035 0.143196
14098.33008 0.143077
14099.04980 0.142958
14099.78027 0.142839
14100.50000 0.142735
14101.21973 0.142636
14101.94043 0.142538
14102.66992 0.14244
14103.38965 0.142342
14104.11035 0.142244
14104.83984 0.142146
14105.55957 0.142057
14106.28027 0.14197
14107.00977 0.141884
14107.73047 0.141798
14108.45020 0.141711
14109.16992 0.141625
14109.90039 0.141538
14110.62012 0.141468
14111.33984 0.141401
14112.07031 0.141334
14112.79004 0.141266
14113.51953 0.141199
14114.24023 0.141131
14114.95996 0.141064
14115.69043 0.140999
14116.41016 0.140933
14117.12988 0.140868
14117.86035 0.140803
14118.58008 0.140737
14119.29980 0.140672
14120.03027 0.140607
14120.75000 0.14055
14121.48047 0.140494
14122.20020 0.140437
14122.91992 0.14038
14123.65039 0.140323
14124.37012 0.140267
14125.09961 0.140212
14125.82031 0.140168
14126.54004 0.140124
14127.26953 0.14008
14127.99023 0.140037
14128.71973 0.139993
14129.44043 0.139949
14130.16992 0.139911
14130.88965 0.139893
14131.61035 0.139875
14132.33984 0.139857
14133.05957 0.139839
14133.79004 0.13982
14134.50977 0.139802
14135.24023 0.139786
14135.95996 0.139773
14136.69043 0.13976
14137.41016 0.139747
14138.13965 0.139735
14138.86035 0.139722
14139.58008 0.139709
14140.30957 0.139703
14141.04004 0.139704
14141.75977 0.139706
14142.49023 0.139708
14143.20996 0.139709
14143.92969 0.139711
14144.66016 0.139713
14145.37988 0.139721
14146.11035 0.139736
14146.83984 0.13975
14147.55957 0.139764
14148.29004 0.139778
14149.00977 0.139793
14149.74023 0.139807
14150.45996 0.139832
14151.19043 0.139863
14151.91016 0.139894
14152.63965 0.139925
14153.36035 0.139956
14154.08984 0.139987
14154.82031 0.140018
14155.54004 0.140063
14156.26953 0.140113
14156.99023 0.140163
14157.71973 0.140213
14158.44043 0.140263
14159.16992 0.140313
14159.90039 0.140363
14160.62012 0.140414
14161.34961 0.140465
14162.07031 0.140517
14162.79980 0.140569
14163.53027 0.14062
14164.25000 0.140672
14164.98047 0.140723
14165.70020 0.140792
14166.42969 0.140862
14167.16016 0.140932
14167.87988 0.141001
14168.61035 0.141071
14169.33008 0.141141
14170.05957 0.141211
14170.79004 0.141289
14171.50977 0.141366
14172.24023 0.141444
14172.96973 0.141522
14173.69043 0.141599
14174.41992 0.141677
14175.15039 0.141758
14175.87012 0.141852
14176.59961 0.141946
14177.33008 0.14204
14178.04980 0.142134
14178.78027 0.142228
14179.50977 0.142322
14180.23047 0.142417
14180.95996 0.142516
14181.69043 0.142614
14182.41992 0.142712
14183.13965 0.142811
14183.87012 0.142909
14184.59961 0.143007
14185.32031 0.143114
14186.04980 0.143232
14186.78027 0.14335
14187.50977 0.143467
14188.23047 0.143585
14188.95996 0.143703
14189.69043 0.143821
14190.41992 0.143946
14191.13965 0.144077
14191.87012 0.144208
14192.59961 0.144339
14193.33008 0.14447
14194.04980 0.144601
14194.78027 0.144732
14195.50977 0.144862
14196.24023 0.144991
14196.95996 0.14512
14197.69043 0.145249
14198.41992 0.145378
14199.15039 0.145508
14199.87988 0.145637
14200.59961 0.14577
14201.33008 0.145904
14202.05957 0.146038
14202.79004 0.146172
14203.50977 0.146306
14204.24023 0.14644
14204.96973 0.146574
14205.70020 0.146712
14206.42969 0.146851
14207.16016 0.146989
14207.87988 0.147127
14208.61035 0.147266
14209.33984 0.147405
14210.07031 0.147543
14210.79980 0.147677
14211.53027 0.147811
14212.25000 0.147945
14212.98047 0.148079
14213.70996 0.148213
14214.44043 0.148347
14215.16992 0.148488
14215.90039 0.148652
14216.62988 0.148816
14217.36035 0.14898
14218.08008 0.149144
14218.80957 0.149308
14219.54004 0.149472
14220.26953 0.149635
14221.00000 0.149797
14221.73047 0.149959
14222.45996 0.150121
14223.19043 0.150283
14223.91992 0.150445
14224.65039 0.150607
14225.37988 0.150766
14226.09961 0.150922
14226.83008 0.151078
14227.55957 0.151234
14228.29004 0.151391
14229.01953 0.151547
14229.75000 0.151703
14230.48047 0.151864
14231.20996 0.152026
14231.94043 0.152188
14232.66992 0.15235
14233.40039 0.152512
14234.12988 0.152675
14234.86035 0.152837
14235.58984 0.152995
14236.32031 0.153152
14237.04980 0.153309
14237.78027 0.153466
14238.50977 0.153623
14239.24023 0.153781
14239.96973 0.153938
14240.70020 0.154105
14241.42969 0.154273
14242.16016 0.15444
14242.88965 0.154608
14243.62012 0.154776
14244.34961 0.154944
14245.08008 0.155112
14245.80957 0.155281
14246.54004 0.155451
14247.26953 0.155621
14248.00000 0.155791
14248.73047 0.155961
14249.45996 0.156131
14250.19043 0.156299
14250.91992 0.156458
14251.65039 0.156617
14252.37988 0.156777
14253.11035 0.156936
14253.83984 0.157096
14254.57031 0.157255
14255.29980 0.157416
14256.04004 0.157578
14256.76953 0.157739
14257.50000 0.1579
14258.23047 0.158062
14258.95996 0.158224
14259.69043 0.158386
14260.41992 0.158543
14261.15039 0.158696
14261.87988 0.15885
14262.61035 0.159004
14263.34961 0.159158
14264.08008 0.159311
14264.80957 0.159465
14265.54004 0.159613
14266.26953 0.15976
14267.00000 0.159906
14267.73047 0.160053
14268.45996 0.160199
14269.20020 0.160346
14269.92969 0.160493
14270.66016 0.16064
14271.38965 0.160788
14272.12012 0.160936
14272.84961 0.161083
14273.58984 0.161231
14274.32031 0.161379
14275.04980 0.161527
14275.78027 0.161676
14276.50977 0.161826
14277.25000 0.161975
14277.98047 0.162125
14278.70996 0.162274
14279.44043 0.162423
14280.16992 0.162571
14280.90039 0.162713
14281.63965 0.162854
14282.37012 0.162996
14283.09961 0.163138
14283.83008 0.163279
14284.57031 0.163421
14285.29980 0.163559
14286.03027 0.16369
14286.75977 0.163821
14287.50000 0.163952
14288.23047 0.164083
14288.95996 0.164214
14289.69043 0.164345
14290.41992 0.164471
14291.16016 0.164593
14291.88965 0.164715
14292.62012 0.164837
14293.36035 0.164959
14294.08984 0.165081
14294.82031 0.165203
14295.54980 0.165317
14296.29004 0.165428
14297.01953 0.165539
14297.75000 0.16565
14298.49023 0.165761
14299.21973 0.165872
14299.95020 0.165983
14300.67969 0.166094
14301.41992 0.166205
14302.15039 0.166316
14302.87988 0.166427
14303.62012 0.166538
14304.34961 0.166649
14305.08008 0.166758
14305.82031 0.166856
14306.54980 0.166953
14307.28027 0.16705
14308.01953 0.167148
14308.75000 0.167245
14309.48047 0.167343
14310.21973 0.16744
14310.95020 0.167536
14311.69043 0.167632
14312.41992 0.167729
14313.15039 0.167825
14313.88965 0.167922
14314.62012 0.168018
14315.34961 0.168111
14316.08984 0.1682
14316.82031 0.16829
14317.55957 0.168379
14318.29004 0.168468
14319.01953 0.168558
14319.75977 0.168647
14320.49023 0.16873
14321.23047 0.168811
14321.95996 0.168892
14322.69043 0.168972
14323.42969 0.169053
14324.16016 0.169133
14324.90039 0.169214
14325.62988 0.169284
14326.37012 0.169353
14327.09961 0.169421
14327.83008 0.16949
14328.57031 0.169558
14329.29980 0.169627
14330.04004 0.169695
14330.76953 0.169759
14331.50977 0.169822
14332.24023 0.169886
14332.98047 0.16995
14333.70996 0.170013
14334.45020 0.170077
14335.17969 0.170138
14335.91992 0.170193
14336.65039 0.170248
14337.38965 0.170303
14338.12012 0.170358
14338.86035 0.170414
14339.58984 0.170469
14340.33008 0.170522
14341.05957 0.170574
14341.79980 0.170626
14342.53027 0.170678
14343.26953 0.17073
14344.00000 0.170782
14344.74023 0.170834
14345.46973 0.170883
14346.20996 0.17093
14346.94043 0.170977
14347.67969 0.171023
14348.41992 0.17107
14349.15039 0.171117
14349.88965 0.171164
14350.62012 0.171197
14351.36035 0.171229
14352.08984 0.17126
14352.83008 0.171291
14353.55957 0.171323
14354.29980 0.171354
14355.04004 0.171386
14355.76953 0.171423
14356.50977 0.17146
14357.24023 0.171497
14357.98047 0.171534
14358.71973 0.171571
14359.45020 0.171608
14360.19043 0.171642
14360.91992 0.171667
14361.66016 0.171692
14362.40039 0.171717
14363.12988 0.171742
14363.87012 0.171767
14364.61035 0.171792
14365.33984 0.171814
14366.08008 0.171834
14366.82031 0.171854
14367.54980 0.171874
14368.29004 0.171893
14369.01953 0.171913
14369.75977 0.171933
14370.50000 0.17195
14371.23047 0.171966
14371.96973 0.171982
14372.70996 0.171998
14373.45020 0.172014
14374.17969 0.17203
14374.91992 0.172046
14375.66016 0.172062
14376.38965 0.172078
14377.12988 0.172094
14377.87012 0.17211
14378.59961 0.172126
14379.33984 0.172142
14380.08008 0.172155
14380.82031 0.172152
14381.54980 0.172148
14382.29004 0.172145
14383.03027 0.172141
14383.75977 0.172138
14384.50000 0.172134
14385.24023 0.172135
14385.98047 0.172145
14386.70996 0.172154
14387.45020 0.172164
14388.19043 0.172173
14388.92969 0.172183
14389.66016 0.172192
14390.40039 0.172196
14391.13965 0.172195
14391.87988 0.172193
14392.62012 0.172192
14393.34961 0.17219
14394.08984 0.172189
14394.83008 0.172188
14395.57031 0.17219
14396.29980 0.172194
14397.04004 0.172198
14397.78027 0.172202
14398.51953 0.172206
14399.25977 0.17221
14400.00000 0.172214
14400.73047 0.17221
14401.46973 0.172207
14402.20996 0.172203
14402.95020 0.172199
14403.69043 0.172195
14404.41992 0.172191
14405.16016 0.172186
14405.90039 0.172172
14406.63965 0.172159
14407.37988 0.172146
14408.12012 0.172132
14408.86035 0.172119
14409.58984 0.172106
14410.33008 0.172101
14411.07031 0.172106
14411.80957 0.172111
14412.54980 0.172117
14413.29004 0.172122
14414.03027 0.172127
14414.76953 0.172132
14415.50977 0.172123
14416.24023 0.172107
14416.98047 0.172091
14417.71973 0.172075
14418.45996 0.17206
14419.20020 0.172044
14419.94043 0.172028
14420.67969 0.172016
14421.41992 0.172004
14422.16016 0.171992
14422.90039 0.17198
14423.63965 0.171968
14424.37988 0.171956
14425.12012 0.171945
14425.84961 0.171938
14426.58984 0.171931
14427.33008 0.171923
14428.07031 0.171916
14428.80957 0.171908
14429.54980 0.171901
14430.29004 0.171893
14431.03027 0.171885
14431.76953 0.171876
14432.50977 0.171868
14433.25000 0.171859
14433.99023 0.171851
14434.73047 0.171842
14435.46973 0.171832
14436.20996 0.17182
14436.95020 0.171808
14437.69043 0.171796
14438.42969 0.171784
14439.16992 0.171772
14439.91016 0.17176
14440.65039 0.171751
14441.38965 0.171743
14442.12988 0.171734
14442.87012 0.171726
14443.61035 0.171717
14444.34961 0.171709
14445.08984 0.1717
14445.83008 0.171686
14446.58008 0.171673
14447.32031 0.171659
14448.05957 0.171646
14448.79980 0.171632
14449.54004 0.171619
14450.28027 0.171605
14451.01953 0.171592
14451.75977 0.171579
14452.50000 0.171566
14453.24023 0.171553
14453.98047 0.171539
14454.71973 0.171526
14455.46973 0.171515
14456.20996 0.171505
14456.95020 0.171494
14457.69043 0.171484
14458.42969 0.171474
14459.16992 0.171464
14459.91016 0.171454
14460.65039 0.171447
14461.38965 0.171441
14462.13965 0.171435
14462.87988 0.171429
14463.62012 0.171423
14464.36035 0.171416
14465.09961 0.17141
14465.83984 0.171398
14466.58008 0.171387
14467.33008 0.171375
14468.07031 0.171364
14468.80957 0.171352
14469.54980 0.171341
14470.29004 0.171331
14471.04004 0.171325
14471.78027 0.171319
14472.51953 0.171313
14473.25977 0.171307
14474.00000 0.171301
14474.75000 0.171295
14475.49023 0.171283
14476.23047 0.171267
14476.96973 0.171252
14477.70996 0.171237
14478.45996 0.171222
14479.20020 0.171207
14479.94043 0.171191
14480.67969 0.171182
14481.41992 0.171172
14482.16992 0.171163
14482.91016 0.171154
14483.65039 0.171145
14484.38965 0.171136
14485.13965 0.171129
14485.87988 0.171131
14486.62012 0.171133
14487.37012 0.171135
14488.11035 0.171137
14488.84961 0.171138
14489.58984 0.17114
14490.33984 0.171137
14491.08008 0.171127
14491.82031 0.171118
14492.55957 0.171108
14493.30957 0.171098
14494.04980 0.171089
14494.79004 0.171079
14495.54004 0.171074
14496.28027 0.17107
14497.01953 0.171066
14497.76953 0.171062
14498.50977 0.171058
14499.25000 0.171053
14500.00000 0.171049
14500.74023 0.171053
14501.48047 0.171058
14502.23047 0.171062
14502.96973 0.171066
14503.70996 0.17107
14504.45996 0.171074
14505.20020 0.171076
14505.94043 0.171072
14506.69043 0.171068
14507.42969 0.171064
14508.16992 0.17106
14508.91992 0.171055
14509.66016 0.171051
14510.41016 0.171052
14511.15039 0.171058
14511.88965 0.171064
14512.63965 0.171069
14513.37988 0.171075
14514.12012 0.17108
14514.87012 0.171086
14515.61035 0.171091
14516.36035 0.171097
14517.09961 0.171102
14517.84961 0.171108
14518.58984 0.171113
14519.33008 0.171119
14520.08008 0.171123
14520.82031 0.171121
14521.57031 0.171118
14522.30957 0.171115
14523.05957 0.171113
14523.79980 0.17111
14524.54980 0.171108
14525.29004 0.171109
14526.04004 0.171117
14526.78027 0.171125
14527.51953 0.171132
14528.26953 0.17114
14529.00977 0.171148
14529.75977 0.171155
14530.50000 0.171166
14531.25000 0.171177
14531.99023 0.171188
14532.74023 0.1712
14533.48047 0.171211
14534.23047 0.171223
14534.96973 0.171234
14535.71973 0.171239
14536.45996 0.171243
14537.20996 0.171247
14537.95020 0.171252
14538.70020 0.171256
14539.44043 0.17126
14540.19043 0.171266
14540.94043 0.171275
14541.67969 0.171284
14542.42969 0.171294
14543.16992 0.171303
14543.91992 0.171312
14544.66016 0.171321
14545.41016 0.171334
14546.15039 0.17135
14546.90039 0.171366
14547.65039 0.171381
14548.38965 0.171397
14549.13965 0.171412
14549.87988 0.171428
14550.62988 0.171432
14551.37988 0.171434
14552.12012 0.171436
14552.87012 0.171438
14553.61035 0.17144
14554.36035 0.171442
14555.09961 0.171446
14555.84961 0.171464
14556.59961 0.171482
14557.33984 0.1715
14558.08984 0.171518
14558.83984 0.171537
14559.58008 0.171555
14560.33008 0.171569
14561.08008 0.171577
14561.82031 0.171585
14562.57031 0.171594
14563.30957 0.171602
14564.05957 0.171611
14564.80957 0.171619
14565.54980 0.171637
14566.29980 0.171657
14567.04980 0.171678
14567.79004 0.171699
14568.54004 0.17172
14569.29004 0.17174
14570.04004 0.171761
14570.78027 0.171776
14571.53027 0.171792
14572.28027 0.171808
14573.01953 0.171823
14573.76953 0.171839
14574.51953 0.171855
14575.25977 0.171868
14576.00977 0.171878
14576.75977 0.171888
14577.50977 0.171898
14578.25000 0.171908
14579.00000 0.171918
14579.75000 0.171927
14580.50000 0.171944
14581.24023 0.171964
14581.99023 0.171985
14582.74023 0.172005
14583.49023 0.172026
14584.23047 0.172046
14584.98047 0.172066
14585.73047 0.172084
14586.48047 0.172101
14587.21973 0.172119
14587.96973 0.172136
14588.71973 0.172153
14589.46973 0.172171
14590.21973 0.172188
14590.95996 0.172203
14591.70996 0.172219
14592.45996 0.172234
14593.20996 0.17225
14593.95996 0.172266
14594.70020 0.172281
14595.45020 0.1723
14596.20020 0.172321
14596.95020 0.172342
14597.70020 0.172364
14598.45020 0.172385
14599.19043 0.172406
14599.94043 0.172427
14600.69043 0.172448
14601.44043 0.172469
14602.19043 0.17249
14602.94043 0.172512
14603.67969 0.172533
14604.42969 0.172554
14605.17969 0.172574
14605.92969 0.172592
14606.67969 0.17261
14607.42969 0.172627
14608.17969 0.172645
14608.92969 0.172663
14609.66992 0.172681
14610.41992 0.172697
14611.16992 0.172711
14611.91992 0.172726
14612.66992 0.17274
14613.41992 0.172755
14614.16992 0.172769
14614.91992 0.172783
14615.66992 0.172799
14616.41992 0.172814
14617.16992 0.17283
14617.91992 0.172845
14618.66992 0.172861
14619.41016 0.172876
14620.16016 0.172895
14620.91016 0.172921
14621.66016 0.172948
14622.41016 0.172975
14623.16016 0.173002
14623.91016 0.173029
14624.66016 0.173055
14625.41016 0.17308
14626.16016 0.173103
14626.91016 0.173126
14627.66016 0.173149
14628.41016 0.173172
14629.16016 0.173195
14629.91016 0.173218
14630.66016 0.173234
14631.41016 0.17325
14632.16016 0.173265
14632.91016 0.17328
14633.66016 0.173295
14634.41016 0.173311
14635.16016 0.173329
14635.91016 0.173357
14636.66016 0.173386
14637.41016 0.173414
14638.16016 0.173443
14638.91016 0.173471
14639.66016 0.1735
14640.41016 0.173522
14641.16016 0.17354
14641.91016 0.173558
14642.66992 0.173575
14643.41992 0.173593
14644.16992 0.173611
14644.91992 0.173628
14645.66992 0.173652
14646.41992 0.173676
14647.16992 0.1737
14647.91992 0.173724
14648.66992 0.173749
14649.41992 0.173773
14650.16992 0.173798
14650.91992 0.173826
14651.67969 0.173854
14652.42969 0.173882
14653.17969 0.17391
14653.92969 0.173938
14654.67969 0.173967
14655.42969 0.173995
14656.17969 0.174025
14656.92969 0.174054
14657.69043 0.174083
14658.44043 0.174113
14659.19043 0.174142
14659.94043 0.174171
14660.69043 0.174194
14661.44043 0.174216
14662.19043 0.174238
14662.95020 0.17426
14663.70020 0.174282
14664.45020 0.174304
14665.20020 0.174327
14665.95020 0.174354
14666.70996 0.174382
14667.45996 0.174409
14668.20996 0.174436
14668.95996 0.174463
14669.70996 0.174491
14670.45996 0.174518
14671.21973 0.174547
14671.96973 0.174575
14672.71973 0.174603
14673.46973 0.174632
14674.23047 0.17466
14674.98047 0.174688
14675.73047 0.174719
14676.48047 0.17475
14677.23047 0.174782
14677.99023 0.174813
14678.74023 0.174844
14679.49023 0.174875
14680.24023 0.174904
14681.00000 0.17493
14681.75000 0.174956
14682.50000 0.174983
14683.25000 0.175009
14684.00977 0.175035
14684.75977 0.175061
14685.50977 0.175091
14686.26953 0.175121
14687.01953 0.175152
14687.76953 0.175183
14688.51953 0.175214
14689.28027 0.175245
14690.03027 0.175276
14690.78027 0.175309
14691.54004 0.175343
14692.29004 0.175376
14693.04004 0.175409
14693.79980 0.175443
14694.54980 0.175476
14695.29980 0.175509
14696.05957 0.17554
14696.80957 0.175571
14697.55957 0.175602
14698.32031 0.175634
14699.07031 0.175665
14699.82031 0.175696
14700.58008 0.17573
14701.33008 0.175765
14702.08008 0.1758
14702.83984 0.175836
14703.58984 0.175871
14704.34961 0.175906
14705.09961 0.17594
14705.84961 0.175972
14706.61035 0.176004
14707.36035 0.176036
14708.12012 0.176068
14708.87012 0.1761
14709.62012 0.176132
14710.37988 0.176169
14711.12988 0.176212
14711.88965 0.176254
14712.63965 0.176297
14713.38965 0.176339
14714.15039 0.176381
14714.90039 0.176424
14715.66016 0.176466
14716.41016 0.176507
14717.16992 0.176549
14717.91992 0.176591
14718.66992 0.176633
14719.42969 0.176674
14720.17969 0.176715
14720.94043 0.17675
14721.69043 0.176786
14722.45020 0.176821
14723.20020 0.176857
14723.95996 0.176893
14724.70996 0.176928
14725.46973 0.176966
14726.21973 0.177005
14726.98047 0.177044
14727.73047 0.177084
14728.49023 0.177122
14729.24023 0.177162
14730.00000 0.177201
14730.75000 0.177246
14731.50977 0.177292
14732.25977 0.177337
14733.01953 0.177383
14733.76953 0.177428
14734.53027 0.177474
14735.28027 0.177516
14736.04004 0.177553
14736.79004 0.17759
14737.54980 0.177626
14738.30957 0.177663
14739.05957 0.177699
14739.82031 0.177736
14740.57031 0.177771
14741.33008 0.177805
14742.08008 0.177839
14742.83984 0.177874
14743.58984 0.177908
14744.34961 0.177942
14745.11035 0.177977
14745.86035 0.178019
14746.62012 0.178061
14747.37012 0.178102
14748.12988 0.178144
14748.88965 0.178186
14749.63965 0.178227
14750.40039 0.178267
14751.15039 0.178306
14751.91016 0.178344
14752.66992 0.178383
14753.41992 0.178421
14754.17969 0.17846
14754.94043 0.178498
14755.69043 0.178547
14756.45020 0.178596
14757.20996 0.178645
14757.95996 0.178695
14758.71973 0.178744
14759.48047 0.178793
14760.23047 0.17884
14760.99023 0.178879
14761.75000 0.178918
14762.50000 0.178957
14763.25977 0.178997
14764.01953 0.179036
14764.76953 0.179075
14765.53027 0.179115
14766.29004 0.179155
14767.04004 0.179196
14767.79980 0.179236
14768.55957 0.179277
14769.30957 0.179317
14770.07031 0.179357
14770.83008 0.179397
14771.58984 0.179437
14772.33984 0.179477
14773.09961 0.179517
14773.86035 0.179556
14774.62012 0.179596
14775.37012 0.179637
14776.12988 0.179679
14776.88965 0.179721
14777.63965 0.179762
14778.40039 0.179804
14779.16016 0.179846
14779.91992 0.179887
14780.67969 0.179931
14781.42969 0.179975
14782.19043 0.180019
14782.95020 0.180063
14783.70996 0.180107
14784.45996 0.180151
14785.21973 0.180193
14785.98047 0.180231
14786.74023 0.18027
14787.50000 0.180308
14788.25000 0.180346
14789.00977 0.180384
14789.76953 0.180422
14790.53027 0.180456
14791.29004 0.180487
14792.04004 0.180519
14792.79980 0.18055
14793.55957 0.180582
14794.32031 0.180613
14795.08008 0.180646
14795.83984 0.180692
14796.59961 0.180738
14797.34961 0.180784
14798.11035 0.18083
14798.87012 0.180876
14799.62988 0.180922
14800.38965 0.18096
14801.15039 0.18099
14801.91016 0.181021
14802.66992 0.181052
14803.41992 0.181083
14804.17969 0.181113
14804.94043 0.181144
14805.70020 0.181179
14806.45996 0.181216
14807.21973 0.181251
14807.98047 0.181287
14808.74023 0.181323
14809.50000 0.18136
14810.25000 0.181394
14811.00977 0.181427
14811.76953 0.18146
14812.53027 0.181492
14813.29004 0.181525
14814.04980 0.181558
14814.80957 0.18159
14815.57031 0.18162
14816.33008 0.181649
14817.08984 0.181678
14817.84961 0.181707
14818.61035 0.181736
14819.37012 0.181765
14820.12988 0.181793
14820.88965 0.181821
14821.65039 0.181849
14822.41016 0.181877
14823.16992 0.181905
14823.92969 0.181932
14824.69043 0.18196
14825.45020 0.181989
14826.20996 0.182019
14826.96973 0.182049
14827.73047 0.182079
14828.49023 0.182109
14829.25000 0.182138
14830.00977 0.182168
14830.76953 0.182201
14831.53027 0.182234
14832.29004 0.182266
14833.04980 0.182299
14833.80957 0.182332
14834.57031 0.182364
14835.33008 0.182393
14836.08984 0.182417
14836.84961 0.182442
14837.61035 0.182466
14838.37012 0.18249
14839.12988 0.182514
14839.88965 0.182538
14840.66016 0.18257
14841.41992 0.182604
14842.17969 0.182637
14842.94043 0.18267
14843.70020 0.182703
14844.45996 0.182737
14845.21973 0.182767
14845.98047 0.182789
14846.74023 0.182811
14847.50000 0.182833
14848.25977 0.182855
14849.03027 0.182877
14849.79004 0.182899
14850.54980 0.182923
14851.30957 0.182948
14852.07031 0.182972
14852.83008 0.182997
14853.58984 0.183022
14854.36035 0.183046
14855.12012 0.183071
14855.87988 0.183094
14856.63965 0.183118
14857.40039 0.183142
14858.16016 0.183165
14858.91992 0.183189
14859.69043 0.183212
14860.45020 0.183231
14861.20996 0.183246
14861.96973 0.183261
14862.73047 0.183277
14863.50000 0.183292
14864.25977 0.183307
14865.01953 0.183322
14865.78027 0.183349
14866.54004 0.183376
14867.30957 0.183402
14868.07031 0.183429
14868.83008 0.183456
14869.58984 0.183483
14870.34961 0.183504
14871.12012 0.183519
14871.87988 0.183534
14872.63965 0.183548
14873.40039 0.183563
14874.16992 0.183578
14874.92969 0.183593
14875.69043 0.183605
14876.45020 0.183617
14877.21973 0.18363
14877.98047 0.183642
14878.74023 0.183654
14879.50000 0.183667
14880.26953 0.18368
14881.03027 0.183694
14881.79004 0.183709
14882.55957 0.183723
14883.32031 0.183738
14884.08008 0.183752
14884.84961 0.183767
14885.61035 0.183786
14886.37012 0.183807
14887.12988 0.183828
14887.90039 0.183848
14888.66016 0.183869
14889.41992 0.18389
14890.19043 0.183908
14890.95020 0.183916
14891.70996 0.183925
14892.48047 0.183933
14893.24023 0.183942
14894.00000 0.18395
14894.76953 0.183958
14895.53027 0.183969
14896.29980 0.18398
14897.05957 0.183991
14897.82031 0.184002
14898.58984 0.184013
14899.34961 0.184024
14900.11035 0.184035
14900.87988 0.184043
14901.63965 0.184051
14902.41016 0.184059
14903.16992 0.184068
14903.92969 0.184076
14904.70020 0.184084
14905.45996 0.184094
14906.23047 0.184105
14906.99023 0.184116
14907.75000 0.184127
14908.51953 0.184138
14909.28027 0.184149
14910.04980 0.184159
14910.80957 0.184163
14911.58008 0.184167
14912.33984 0.184171
14913.09961 0.184174
14913.87012 0.184178
14914.62988 0.184182
14915.40039 0.184187
14916.16016 0.184193
14916.92969 0.184199
14917.69043 0.184205
14918.45996 0.184211
14919.21973 0.184218
14919.99023 0.184224
14920.75000 0.184228
14921.51953 0.184232
14922.28027 0.184236
14923.04980 0.18424
14923.80957 0.184244
14924.58008 0.184248
14925.33984 0.184255
14926.11035 0.184264
14926.87012 0.184273
14927.63965 0.184282
14928.40039 0.184291
14929.16992 0.1843
14929.92969 0.184309
14930.70020 0.184308
14931.45996 0.184306
14932.23047 0.184304
14932.99023 0.184302
14933.75977 0.184301
14934.53027 0.184299
14935.29004 0.184301
14936.05957 0.184308
14936.82031 0.184316
14937.58984 0.184324
14938.34961 0.184332
14939.12012 0.18434
14939.88965 0.184347
14940.65039 0.18434
14941.41992 0.184329
14942.17969 0.184318
14942.95020 0.184308
14943.71973 0.184297
14944.48047 0.184286
14945.25000 0.184278
14946.00977 0.184274
14946.78027 0.184271
14947.54980 0.184267
14948.30957 0.184263
14949.08008 0.184259
14949.83984 0.184256
14950.61035 0.184257
14951.37988 0.184259
14952.13965 0.184262
14952.91016 0.184264
14953.67969 0.184267
14954.44043 0.184269
14955.20996 0.18427
14955.98047 0.184268
14956.74023 0.184265
14957.50977 0.184263
14958.28027 0.18426
14959.04004 0.184258
14959.80957 0.184255
14960.58008 0.184253
14961.33984 0.184251
14962.11035 0.184248
14962.87988 0.184246
14963.65039 0.184243
14964.41016 0.184241
14965.17969 0.184236
14965.95020 0.184225
14966.70996 0.184213
14967.48047 0.184202
14968.25000 0.18419
14969.01953 0.184178
14969.78027 0.184167
14970.54980 0.184162
14971.32031 0.18416
14972.08984 0.184157
14972.84961 0.184155
14973.62012 0.184153
14974.38965 0.18415
14975.16016 0.184147
14975.91992 0.184141
14976.69043 0.184134
14977.45996 0.184128
14978.23047 0.184121
14979.00000 0.184115
14979.75977 0.184108
14980.53027 0.184103
14981.29980 0.184099
14982.07031 0.184094
14982.83984 0.18409
14983.59961 0.184085
14984.37012 0.184081
14985.13965 0.184076
14985.91016 0.184067
14986.67969 0.184059
14987.44043 0.184051
14988.20996 0.184043
14988.98047 0.184035
14989.75000 0.184026
14990.51953 0.184023
14991.29004 0.184022
14992.04980 0.184021
14992.82031 0.18402
14993.58984 0.184018
14994.36035 0.184017
14995.12988 0.184015
14995.90039 0.184007
14996.66992 0.183998
14997.44043 0.18399
14998.20020 0.183982
14998.96973 0.183974
14999.74023 0.183966
15000.50977 0.183951
15001.28027 0.183932
15002.04980 0.183914
15002.82031 0.183895
15003.58984 0.183876
15004.36035 0.183858
15005.12988 0.183841
15005.90039 0.183835
15006.66016 0.183828
15007.42969 0.183821
15008.20020 0.183815
15008.96973 0.183808
15009.74023 0.183801
15010.50977 0.183794
15011.28027 0.183786
15012.04980 0.183779
15012.82031 0.183771
15013.58984 0.183763
15014.36035 0.183755
15015.12988 0.183744
15015.90039 0.183716
15016.66992 0.183688
15017.44043 0.18366
15018.20996 0.183632
15018.98047 0.183604
15019.75000 0.183577
15020.51953 0.183559
15021.29004 0.183548
15022.05957 0.183536
15022.83008 0.183524
15023.59961 0.183512
15024.37012 0.183501
15025.13965 0.183489
15025.91016 0.183479
15026.67969 0.18347
15027.45020 0.18346
15028.21973 0.18345
15028.99023 0.183441
15029.75977 0.183431
15030.53027 0.183419
15031.29980 0.183407
15032.07031 0.183394
15032.83984 0.183381
15033.61035 0.183368
15034.37988 0.183355
15035.16016 0.183342
15035.92969 0.183328
15036.70020 0.183314
15037.46973 0.1833
15038.24023 0.183286
15039.00977 0.183272
15039.78027 0.183258
15040.54980 0.183246
15041.32031 0.183236
15042.08984 0.183225
15042.86035 0.183215
15043.63965 0.183204
15044.41016 0.183193
15045.17969 0.183181
15045.95020 0.183166
15046.71973 0.18315
15047.49023 0.183134
15048.25977 0.183119
15049.03027 0.183103
15049.80957 0.183087
15050.58008 0.183082
15051.34961 0.183081
15052.12012 0.18308
15052.88965 0.183078
15053.66016 0.183077
15054.44043 0.183076
15055.20996 0.183072
15055.98047 0.183062
15056.75000 0.183053
15057.51953 0.183043
15058.29004 0.183033
15059.07031 0.183023
15059.83984 0.183013
15060.61035 0.182999
15061.37988 0.182983
15062.16016 0.182967
15062.92969 0.182952
15063.70020 0.182936
15064.46973 0.18292
15065.24023 0.182908
15066.01953 0.182906
15066.79004 0.182903
15067.55957 0.182901
15068.33008 0.182898
15069.11035 0.182895
15069.87988 0.182893
15070.65039 0.182883
15071.41992 0.182873
15072.20020 0.182862
15072.96973 0.182851
15073.74023 0.18284
15074.50977 0.182829
15075.29004 0.182816
15076.05957 0.1828
15076.83008 0.182783
15077.61035 0.182767
15078.37988 0.18275
15079.15039 0.182733
15079.91992 0.182717
15080.70020 0.182723
15081.46973 0.182731
15082.24023 0.18274
15083.01953 0.182748
15083.79004 0.182757
15084.55957 0.182765
15085.33984 0.182767
15086.11035 0.18276
15086.87988 0.182753
15087.66016 0.182746
15088.42969 0.182738
15089.20020 0.182731
15089.98047 0.182724
15090.75000 0.182718
15091.51953 0.182711
15092.29980 0.182705
15093.07031 0.182698
15093.84961 0.182691
15094.62012 0.182685
15095.38965 0.182682
15096.16992 0.182683
15096.94043 0.182684
15097.70996 0.182686
15098.49023 0.182687
15099.25977 0.182688
15100.04004 0.182689
15100.80957 0.182683
15101.58008 0.182678
15102.36035 0.182673
15103.12988 0.182668
15103.91016 0.182663
15104.67969 0.182658
15105.45996 0.182658
15106.23047 0.182661
15107.00000 0.182664
15107.78027 0.182666
15108.54980 0.182669
15109.33008 0.182672
15110.09961 0.182676
15110.87988 0.182686
15111.65039 0.182696
15112.42969 0.182706
15113.20020 0.182717
15113.98047 0.182727
15114.75000 0.182737
15115.53027 0.182737
15116.29980 0.182732
15117.08008 0.182726
15117.84961 0.182721
15118.62988 0.182716
15119.40039 0.182711
15120.17969 0.182709
15120.95020 0.18272
15121.73047 0.182731
15122.50000 0.182743
15123.28027 0.182754
15124.04980 0.182765
15124.83008 0.182776
15125.59961 0.18278
15126.37988 0.182781
15127.15039 0.182782
15127.92969 0.182783
15128.70020 0.182784
15129.48047 0.182785
15130.25977 0.182785
15131.03027 0.182783
15131.80957 0.182781
15132.58008 0.182779
15133.36035 0.182778
15134.12988 0.182776
15134.91016 0.182774
15135.69043 0.182786
15136.45996 0.1828
15137.24023 0.182814
15138.00977 0.182829
15138.79004 0.182843
15139.57031 0.182857
15140.33984 0.182862
15141.12012 0.182856
15141.88965 0.18285
15142.66992 0.182843
15143.45020 0.182837
15144.21973 0.182831
15145.00000 0.182825
15145.78027 0.182841
15146.54980 0.182856
15147.33008 0.182872
15148.11035 0.182887
15148.87988 0.182903
15149.66016 0.182919
15150.44043 0.182929
15151.20996 0.182936
15151.99023 0.182943
15152.76953 0.182949
15153.54004 0.182956
15154.32031 0.182963
15155.09961 0.18297
15155.87012 0.182981
15156.65039 0.182991
15157.42969 0.183002
15158.20020 0.183013
15158.98047 0.183023
15159.75977 0.183034
15160.54004 0.183043
15161.30957 0.183052
15162.08984 0.18306
15162.87012 0.183068
15163.63965 0.183077
15164.41992 0.183086
15165.20020 0.183094
15165.98047 0.183102
15166.75000 0.18311
15167.53027 0.183117
15168.30957 0.183125
15169.08984 0.183133
15169.86035 0.183141
15170.63965 0.183149
15171.41992 0.183156
15172.20020 0.183164
15172.96973 0.183172
15173.75000 0.183179
15174.53027 0.183187
15175.30957 0.183198
15176.08984 0.183214
15176.86035 0.18323
15177.63965 0.183246
15178.41992 0.183261
15179.20020 0.183277
15179.98047 0.183293
15180.75000 0.183309
15181.53027 0.183325
15182.30957 0.183341
15183.08984 0.183357
15183.87012 0.183373
15184.65039 0.18339
15185.41992 0.183399
15186.20020 0.183402
15186.98047 0.183406
15187.75977 0.183409
15188.54004 0.183413
15189.32031 0.183416
15190.09961 0.183421
15190.87012 0.183433
15191.65039 0.183446
15192.42969 0.183458
15193.20996 0.183471
15193.99023 0.183483
15194.76953 0.183496
15195.54980 0.183509
15196.33008 0.183523
15197.11035 0.183536
15197.87988 0.183549
15198.66016 0.183563
15199.44043 0.183576
15200.21973 0.18359
15201.00000 0.183604
15201.78027 0.183617
15202.55957 0.183631
15203.33984 0.183645
15204.12012 0.183659
15204.90039 0.183673
15205.67969 0.183692
15206.45996 0.183712
15207.24023 0.183732
15208.01953 0.183752
15208.79980 0.183772
15209.58008 0.183792
15210.36035 0.183811
15211.13965 0.183829
15211.91992 0.183846
15212.70020 0.183864
15213.46973 0.183882
15214.25000 0.183899
15215.04004 0.183916
15215.80957 0.183924
15216.58984 0.183932
15217.37012 0.18394
15218.16016 0.183948
15218.94043 0.183956
15219.70996 0.183964
15220.50000 0.183976
15221.28027 0.183991
15222.05957 0.184006
15222.83984 0.184021
15223.62012 0.184035
15224.40039 0.18405
15225.17969 0.184065
15225.95996 0.18408
15226.74023 0.184094
15227.51953 0.184109
15228.29980 0.184123
15229.08008 0.184138
15229.86035 0.184152
15230.63965 0.18417
15231.41992 0.184188
15232.20020 0.184206
15232.98047 0.184224
15233.76953 0.184242
15234.54980 0.18426
15235.33008 0.184276
15236.11035 0.184288
15236.88965 0.184301
15237.66992 0.184313
15238.45020 0.184326
15239.23047 0.184338
15240.00977 0.18435
15240.79004 0.184356
15241.58008 0.184363
15242.36035 0.184369
15243.13965 0.184375
15243.91992 0.184381
15244.70020 0.184388
15245.48047 0.184401
15246.26953 0.184419
15247.04980 0.184436
15247.83008 0.184454
15248.61035 0.184472
15249.38965 0.18449
15250.16992 0.184506
15250.95996 0.18452
15251.74023 0.184533
15252.51953 0.184547
15253.29980 0.18456
15254.08008 0.184573
15254.87012 0.184586
15255.65039 0.184605
15256.42969 0.184624
15257.20996 0.184643
15257.99023 0.184662
15258.78027 0.184681
15259.55957 0.1847
15260.33984 0.184712
15261.12012 0.184715
15261.90039 0.184717
15262.69043 0.18472
15263.46973 0.184722
15264.25000 0.184725
15265.03027 0.184728
15265.82031 0.184745
15266.59961 0.184762
15267.37988 0.184779
15268.16992 0.184797
15268.95020 0.184814
15269.73047 0.184831
15270.50977 0.184838
15271.29980 0.184841
15272.08008 0.184843
15272.86035 0.184845
15273.63965 0.184848
15274.42969 0.18485
15275.20996 0.184856
15275.99023 0.184871
15276.78027 0.184887
15277.55957 0.184902
15278.33984 0.184917
15279.12988 0.184932
15279.91016 0.184948
15280.69043 0.18496
15281.48047 0.184972
15282.25977 0.184984
15283.04004 0.184996
15283.83008 0.185008
15284.61035 0.18502
15285.38965 0.18503
15286.17969 0.185039
15286.95996 0.185048
15287.75000 0.185056
15288.53027 0.185065
15289.30957 0.185074
15290.09961 0.185082
15290.87988 0.185087
15291.66016 0.185093
15292.45020 0.185099
15293.23047 0.185104
15294.01953 0.18511
15294.79980 0.185115
15295.58008 0.185127
15296.37012 0.185141
15297.15039 0.185155
15297.94043 0.185169
15298.71973 0.185183
15299.50000 0.185197
15300.29004 0.185202
15301.07031 0.185192
15301.86035 0.185182
15302.63965 0.185171
15303.42969 0.185161
15304.20996 0.185151
15305.00000 0.185141
15305.78027 0.185141
15306.55957 0.185142
15307.34961 0.185143
15308.12988 0.185144
15308.91992 0.185145
15309.70020 0.185145
15310.49023 0.185142
15311.26953 0.185137
15312.05957 0.185132
15312.83984 0.185126
15313.62988 0.185121
15314.41016 0.185116
15315.20020 0.185111
15315.98047 0.185109
15316.76953 0.185106
15317.54980 0.185104
15318.33984 0.185101
15319.12988 0.185099
15319.91016 0.185096
15320.70020 0.185083
15321.48047 0.185068
15322.26953 0.185054
15323.04980 0.185039
15323.83984 0.185024
15324.62012 0.18501
15325.41016 0.185004
15326.19043 0.185005
15326.98047 0.185007
15327.76953 0.185009
15328.54980 0.185011
15329.33984 0.185013
15330.12012 0.185014
15330.91016 0.185011
15331.69043 0.185008
15332.48047 0.185005
15333.26953 0.185002
15334.04980 0.184999
15334.83984 0.184996
15335.62988 0.184989
15336.41016 0.184981
15337.20020 0.184974
15337.98047 0.184966
15338.76953 0.184959
15339.55957 0.184951
15340.33984 0.184944
15341.12988 0.184936
15341.91992 0.184928
15342.70020 0.18492
15343.49023 0.184913
15344.26953 0.184905
15345.05957 0.184897
15345.84961 0.184887
15346.62988 0.184876
15347.41992 0.184866
15348.20996 0.184855
15349.00000 0.184845
15349.78027 0.184834
15350.57031 0.184826
15351.36035 0.184819
15352.13965 0.184813
15352.92969 0.184806
15353.71973 0.184799
15354.50000 0.184792
15355.29004 0.184785
15356.08008 0.184778
15356.87012 0.184771
15357.65039 0.184764
15358.44043 0.184756
15359.23047 0.184749
15360.00977 0.184742
15360.79980 0.184731
15361.58984 0.18472
15362.37988 0.184709
15363.16016 0.184699
15363.95020 0.184688
15364.74023 0.184677
15365.53027 0.184665
15366.32031 0.184652
15367.09961 0.18464
15367.88965 0.184628
15368.67969 0.184615
15369.46973 0.184603
15370.25000 0.184588
15371.04004 0.18457
15371.83008 0.184552
15372.62012 0.184533
15373.41016 0.184515
15374.19043 0.184497
15374.98047 0.184478
15375.76953 0.184474
15376.55957 0.18447
15377.34961 0.184467
15378.13965 0.184463
15378.91992 0.184459
15379.70996 0.184455
15380.50000 0.184446
15381.29004 0.184433
15382.08008 0.184421
15382.87012 0.184409
15383.65039 0.184396
15384.44043 0.184384
15385.23047 0.184372
15386.01953 0.18436
15386.80957 0.184348
15387.59961 0.184336
15388.38965 0.184325
15389.17969 0.184313
15389.95996 0.184301
15390.75000 0.184284
15391.54004 0.184266
15392.33008 0.184248
15393.12012 0.18423
15393.91016 0.184212
15394.70020 0.184194
15395.49023 0.184183
15396.28027 0.184175
15397.07031 0.184167
15397.86035 0.18416
15398.65039 0.184152
15399.42969 0.184144
15400.21973 0.184138
15401.00977 0.184137
15401.79980 0.184137
15402.58984 0.184136
15403.37988 0.184135
15404.16992 0.184134
15404.95996 0.184133
15405.75000 0.184132
15406.54004 0.184131
15407.33008 0.18413
15408.12012 0.184129
15408.91016 0.184128
15409.70020 0.184127
15410.49023 0.184122
15411.28027 0.184114
15412.07031 0.184106
15412.86035 0.184098
15413.65039 0.184091
15414.44043 0.184083
15415.23047 0.184079
15416.01953 0.184082
15416.80957 0.184086
15417.59961 0.18409
15418.38965 0.184094
15419.17969 0.184098
15419.96973 0.184102
15420.75977 0.184107
15421.54980 0.184113
15422.33984 0.184119
15423.13965 0.184125
15423.92969 0.184131
15424.71973 0.184136
15425.50977 0.184133
15426.29980 0.184124
15427.08984 0.184116
15427.87988 0.184107
15428.66992 0.184099
15429.45996 0.18409
15430.25000 0.184084
15431.04004 0.184081
15431.83008 0.184078
15432.62988 0.184075
15433.41992 0.184071
15434.20996 0.184068
15435.00000 0.184065
15435.79004 0.184075
15436.58008 0.184085
15437.37012 0.184095
15438.16992 0.184104
15438.95996 0.184114
15439.75000 0.184124
15440.54004 0.184127
15441.33008 0.184126
15442.12012 0.184126
15442.91016 0.184125
15443.70996 0.184125
15444.50000 0.184125
15445.29004 0.184125
15446.08008 0.184125
15446.87012 0.184126
15447.66992 0.184127
15448.45996 0.184127
15449.25000 0.184128
15450.04004 0.184128
15450.83008 0.184128
15451.62012 0.184128
15452.41992 0.184128
15453.20996 0.184128
15454.00000 0.184128
15454.79004 0.184127
15455.58984 0.18413
15456.37988 0.184134
15457.16992 0.184138
15457.95996 0.184142
15458.75000 0.184145
15459.54980 0.184149
15460.33984 0.18415
15461.12988 0.184146
15461.92969 0.184142
15462.71973 0.184138
15463.50977 0.184134
15464.29980 0.18413
15465.09961 0.184127
15465.88965 0.184131
15466.67969 0.184135
15467.46973 0.184139
15468.26953 0.184143
15469.05957 0.184147
15469.84961 0.184151
15470.65039 0.184155
15471.44043 0.184159
15472.23047 0.184163
15473.03027 0.184166
15473.82031 0.18417
15474.61035 0.184174
15475.41016 0.184178
15476.20020 0.184181
15476.99023 0.184185
15477.79004 0.184188
15478.58008 0.184192
15479.37012 0.184195
15480.16992 0.1842
15480.95996 0.184212
15481.75000 0.184223
15482.54980 0.184234
15483.33984 0.184246
15484.12988 0.184257
15484.92969 0.184269
15485.71973 0.184273
15486.51953 0.184276
15487.30957 0.184279
15488.09961 0.184282
15488.90039 0.184286
15489.69043 0.184289
15490.49023 0.184297
15491.28027 0.184308
15492.07031 0.184319
15492.87012 0.18433
15493.66016 0.184341
15494.45996 0.184352
15495.25000 0.184361
15496.04980 0.184366
15496.83984 0.18437
15497.62988 0.184375
15498.42969 0.184379
15499.21973 0.184384
15500.01953 0.184388
15500.80957 0.184388
15501.61035 0.184388
15502.40039 0.184387
15503.20020 0.184387
15503.99023 0.184387
15504.79004 0.184387
15505.58008 0.184393
15506.37988 0.184401
15507.16992 0.184409
15507.96973 0.184417
15508.75977 0.184426
15509.55957 0.184434
15510.34961 0.184439
15511.15039 0.184439
15511.94043 0.184439
15512.74023 0.184439
15513.53027 0.18444
15514.33008 0.18444
15515.12012 0.18444
15515.91992 0.184443
15516.70996 0.184446
15517.50977 0.184448
15518.29980 0.184451
15519.09961 0.184453
15519.90039 0.184456
15520.69043 0.184456
15521.49023 0.184455
15522.28027 0.184455
15523.08008 0.184454
15523.87012 0.184454
15524.66992 0.184453
15525.45996 0.184457
15526.25977 0.184463
15527.05957 0.18447
15527.84961 0.184476
15528.65039 0.184482
15529.45020 0.184489
15530.24023 0.184497
15531.04004 0.18451
15531.83008 0.184523
15532.62988 0.184536
15533.42969 0.184549
15534.21973 0.184561
15535.01953 0.184574
15535.82031 0.184572
15536.61035 0.18457
15537.41016 0.184567
15538.20020 0.184565
15539.00000 0.184563
15539.79980 0.184561
15540.58984 0.184567
15541.38965 0.184576
15542.19043 0.184585
15542.98047 0.184594
15543.78027 0.184604
15544.58008 0.184613
15545.37988 0.184624
15546.16992 0.184636
15546.96973 0.184649
15547.76953 0.184662
15548.55957 0.184674
15549.36035 0.184687
15550.16016 0.184701
15550.95020 0.184718
15551.75000 0.184734
15552.54980 0.184751
15553.34961 0.184768
15554.13965 0.184784
15554.94043 0.184801
15555.74023 0.184819
15556.54004 0.184837
15557.33008 0.184856
15558.12988 0.184874
15558.92969 0.184892
15559.73047 0.18491
15560.51953 0.184922
15561.32031 0.184929
15562.12012 0.184937
15562.91992 0.184944
15563.70996 0.184951
15564.50977 0.184959
15565.30957 0.184968
15566.11035 0.184979
15566.91016 0.18499
15567.70020 0.185001
15568.50000 0.185012
15569.29980 0.185023
15570.09961 0.185035
15570.90039 0.185058
15571.70020 0.18508
15572.49023 0.185103
15573.29004 0.185125
15574.08984 0.185148
15574.88965 0.18517
15575.69043 0.185192
15576.49023 0.185213
15577.28027 0.185234
15578.08008 0.185255
15578.87988 0.185276
15579.67969 0.185297
15580.48047 0.185315
15581.28027 0.185332
15582.08008 0.185348
15582.87012 0.185364
15583.66992 0.18538
15584.46973 0.185397
15585.26953 0.185416
15586.07031 0.185443
15586.87012 0.185469
15587.66992 0.185496
15588.46973 0.185522
15589.26953 0.185548
15590.07031 0.185574
15590.86035 0.185588
15591.66016 0.185602
15592.45996 0.185616
15593.25977 0.18563
15594.05957 0.185645
15594.86035 0.185659
15595.66016 0.185685
15596.45996 0.185715
15597.25977 0.185744
15598.05957 0.185773
15598.86035 0.185802
15599.66016 0.185831
15600.45996 0.185859
15601.25977 0.185887
15602.05957 0.185914
15602.86035 0.185941
15603.66016 0.185969
15604.45996 0.185996
15605.25977 0.186027
15606.05957 0.186064
15606.86035 0.186102
15607.66016 0.186139
15608.45996 0.186177
15609.25977 0.186215
15610.05957 0.186252
15610.86035 0.186291
15611.66016 0.18633
15612.45996 0.186368
15613.25977 0.186407
15614.05957 0.186446
15614.86035 0.186485
15615.66016 0.18652
15616.45996 0.186554
15617.25977 0.186588
15618.05957 0.186622
15618.86035 0.186656
15619.66016 0.18669
15620.45996 0.186723
15621.25977 0.186757
15622.07031 0.18679
15622.87012 0.186823
15623.66992 0.186856
15624.46973 0.186889
15625.26953 0.186924
15626.07031 0.186964
15626.87012 0.187003
15627.66992 0.187043
15628.46973 0.187082
15629.28027 0.187121
15630.08008 0.18716
15630.87988 0.187196
15631.67969 0.187232
15632.48047 0.187268
15633.28027 0.187303
15634.08008 0.187339
15634.87988 0.187375
15635.69043 0.187417
15636.49023 0.18746
15637.29004 0.187503
15638.08984 0.187546
15638.88965 0.187589
15639.69043 0.187632
15640.50000 0.187671
15641.29980 0.187706
15642.09961 0.187741
15642.90039 0.187777
15643.70020 0.187812
15644.50000 0.187847
15645.30957 0.187886
15646.11035 0.187928
15646.91016 0.187971
15647.70996 0.188013
15648.51953 0.188056
15649.32031 0.188098
15650.12012 0.188141
15650.91992 0.188187
15651.71973 0.188233
15652.53027 0.188279
15653.33008 0.188325
15654.12988 0.188371
15654.92969 0.188417
15655.74023 0.188454
15656.54004 0.188491
15657.33984 0.188528
15658.13965 0.188564
15658.95020 0.188601
15659.75000 0.188638
15660.54980 0.188677
15661.36035 0.188718
15662.16016 0.188759
15662.95996 0.1888
15663.75977 0.18884
15664.57031 0.188881
15665.37012 0.188921
15666.16992 0.188959
15666.98047 0.188997
15667.78027 0.189036
15668.58008 0.189074
15669.38965 0.189112
15670.19043 0.189154
15670.99023 0.189209
15671.79980 0.189263
15672.59961 0.189318
15673.40039 0.189372
15674.20996 0.189427
15675.00977 0.189481
15675.80957 0.18952
15676.62012 0.189558
15677.41992 0.189597
15678.21973 0.189636
15679.03027 0.189674
15679.83008 0.189713
15680.63965 0.189758
15681.44043 0.189805
15682.24023 0.189852
15683.04980 0.189899
15683.84961 0.189946
15684.66016 0.189994
15685.45996 0.190041
15686.25977 0.190088
15687.07031 0.190135
15687.87012 0.190182
15688.67969 0.190229
15689.48047 0.190276
15690.29004 0.190318
15691.08984 0.19035
15691.88965 0.190382
15692.70020 0.190414
15693.50000 0.190447
15694.30957 0.190479
15695.11035 0.190513
15695.91992 0.190559
15696.71973 0.190606
15697.53027 0.190652
15698.33008 0.190698
15699.12988 0.190744
15699.94043 0.19079
15700.74023 0.190831
15701.54980 0.19087
15702.34961 0.19091
15703.16016 0.19095
15703.95996 0.19099
15704.76953 0.19103
15705.57031 0.191068
15706.37988 0.191105
15707.17969 0.191142
15707.99023 0.191179
15708.79004 0.191216
15709.59961 0.191253
15710.41016 0.191293
15711.20996 0.191334
15712.01953 0.191375
15712.82031 0.191416
15713.62988 0.191457
15714.42969 0.191498
15715.24023 0.191539
15716.04004 0.191579
15716.84961 0.191619
15717.66016 0.191659
15718.45996 0.191699
15719.26953 0.19174
15720.07031 0.19178
15720.87988 0.191819
15721.67969 0.191859
15722.49023 0.191898
15723.29980 0.191938
15724.09961 0.191978
15724.91016 0.192017
15725.70996 0.192056
15726.51953 0.192094
15727.33008 0.192132
15728.12988 0.19217
15728.94043 0.192208
15729.75000 0.192246
15730.54980 0.192284
15731.36035 0.192322
15732.16992 0.192359
15732.96973 0.192397
15733.78027 0.192434
15734.58008 0.192472
15735.38965 0.192513
15736.20020 0.192556
15737.00000 0.1926
15737.80957 0.192644
15738.62012 0.192688
15739.42969 0.192732
15740.23047 0.192771
15741.04004 0.192798
15741.84961 0.192826
15742.65039 0.192853
15743.45996 0.19288
15744.26953 0.192908
15745.07031 0.192936
15745.87988 0.192978
15746.69043 0.193019
15747.50000 0.19306
15748.29980 0.193101
15749.11035 0.193142
15749.91992 0.193184
15750.73047 0.19322
15751.53027 0.193256
15752.33984 0.193293
15753.15039 0.193329
15753.95996 0.193365
15754.75977 0.193401
15755.57031 0.19343
15756.37988 0.193455
15757.19043 0.19348
15757.99023 0.193506
15758.79980 0.193531
15759.61035 0.193556
15760.41992 0.193584
15761.23047 0.193615
15762.03027 0.193645
15762.83984 0.193676
15763.65039 0.193707
15764.45996 0.193737
15765.26953 0.193769
15766.07031 0.193802
15766.87988 0.193836
15767.69043 0.19387
15768.50000 0.193904
15769.30957 0.193938
15770.12012 0.193971
15770.91992 0.194004
15771.73047 0.194036
15772.54004 0.194068
15773.34961 0.194101
15774.16016 0.194133
15774.96973 0.194165
15775.78027 0.194197
15776.58008 0.194229
15777.38965 0.194261
15778.20020 0.194293
15779.00977 0.194325
15779.82031 0.194357
15780.62988 0.19438
15781.44043 0.194401
15782.25000 0.194421
15783.05957 0.194442
15783.87012 0.194463
15784.66992 0.194483
15785.48047 0.194508
15786.29004 0.194537
15787.09961 0.194565
15787.91016 0.194593
15788.71973 0.194622
15789.53027 0.19465
15790.33984 0.194677
15791.15039 0.194702
15791.95996 0.194727
15792.76953 0.194752
15793.58008 0.194777
15794.38965 0.194802
15795.20020 0.194825
15796.00977 0.194841
15796.82031 0.194858
15797.62988 0.194875
15798.44043 0.194891
15799.25000 0.194908
15800.05957 0.194924
15800.87012 0.194932
15801.67969 0.19494
15802.49023 0.194949
15803.29980 0.194957
15804.11035 0.194965
15804.91992 0.194973
15805.73047 0.194984
15806.54004 0.194994
15807.34961 0.195004
15808.16016 0.195015
15808.96973 0.195025
15809.78027 0.195036
15810.58984 0.19505
15811.40039 0.195065
15812.20996 0.19508
15813.01953 0.195095
15813.83008 0.19511
15814.63965 0.195125
15815.45020 0.195133
15816.25977 0.195136
15817.07031 0.195139
15817.87988 0.195141
15818.70020 0.195144
15819.50977 0.195147
15820.32031 0.195147
15821.12988 0.195143
15821.94043 0.19514
15822.75000 0.195137
15823.55957 0.195133
15824.37012 0.19513
15825.17969 0.195133
15826.00000 0.195156
15826.80957 0.195179
15827.62012 0.195202
15828.42969 0.195225
15829.24023 0.195248
15830.04980 0.195269
15830.86035 0.19526
15831.67969 0.19525
15832.49023 0.195241
15833.29980 0.195232
15834.11035 0.195222
15834.91992 0.195213
15835.73047 0.195203
15836.54980 0.195192
15837.36035 0.195182
15838.16992 0.195172
15838.98047 0.195161
15839.79004 0.195151
15840.61035 0.195145
15841.41992 0.19514
15842.23047 0.195136
15843.04004 0.195131
15843.84961 0.195126
15844.66992 0.195122
15845.48047 0.195119
15846.29004 0.195117
15847.09961 0.195116
15847.91992 0.195114
15848.73047 0.195113
15849.54004 0.195111
15850.34961 0.195105
15851.16992 0.195094
15851.98047 0.195083
15852.79004 0.195071
15853.59961 0.19506
15854.41992 0.195048
15855.23047 0.195038
15856.04004 0.195031
15856.84961 0.195024
15857.66992 0.195017
15858.48047 0.19501
15859.29004 0.195003
15860.11035 0.194995
15860.91992 0.194981
15861.73047 0.194967
15862.54004 0.194953
15863.36035 0.194939
15864.16992 0.194925
15864.99023 0.194911
15865.79980 0.194897
15866.61035 0.194884
15867.41992 0.194871
15868.24023 0.194857
15869.04980 0.194844
15869.87012 0.194831
15870.67969 0.194813
15871.49023 0.194794
15872.30957 0.194775
15873.12012 0.194757
15873.92969 0.194738
15874.75000 0.194719
15875.55957 0.194709
15876.37988 0.194702
15877.19043 0.194696
15878.00000 0.194689
15878.82031 0.194683
15879.62988 0.194676
15880.45020 0.194657
15881.25977 0.194628
15882.07031 0.194599
15882.88965 0.194569
15883.70020 0.19454
15884.51953 0.194511
15885.33008 0.194486
15886.13965 0.194467
15886.95996 0.194449
15887.76953 0.194431
15888.58984 0.194412
15889.40039 0.194394
15890.21973 0.194373
15891.03027 0.194347
15891.84961 0.194321
15892.66016 0.194294
15893.48047 0.194268
15894.29004 0.194242
15895.09961 0.194215
15895.91992 0.194188
15896.73047 0.19416
15897.54980 0.194132
15898.36035 0.194105
15899.17969 0.194077
15900.00000 0.19405
15900.80957 0.194032
15901.62012 0.194014
15902.44043 0.193996
15903.25000 0.193978
15904.07031 0.193961
15904.88965 0.193943
15905.70020 0.19392
15906.51953 0.193897
15907.33008 0.193874
15908.15039 0.193851
15908.95996 0.193827
15909.78027 0.193804
15910.58984 0.193796
15911.41016 0.193793
15912.23047 0.193791
15913.04004 0.193788
15913.86035 0.193785
15914.66992 0.193782
15915.49023 0.193766
15916.29980 0.193742
15917.12012 0.193717
15917.94043 0.193692
15918.75000 0.193668
15919.57031 0.193643
15920.37988 0.19362
15921.20020 0.193599
15922.01953 0.193578
15922.83008 0.193557
15923.65039 0.193537
15924.46973 0.193516
15925.28027 0.193491
15926.09961 0.193461
15926.91992 0.19343
15927.73047 0.193399
15928.54980 0.193369
15929.36035 0.193338
15930.17969 0.193309
15931.00000 0.193288
15931.80957 0.193267
15932.62988 0.193246
15933.45020 0.193225
15934.25977 0.193204
15935.08008 0.193182
15935.90039 0.193154
15936.71973 0.193125
15937.53027 0.193096
15938.34961 0.193068
15939.16992 0.193039
15939.98047 0.19301
15940.79980 0.192988
15941.62012 0.192965
15942.44043 0.192943
15943.25000 0.19292
15944.07031 0.192898
15944.88965 0.192875
15945.70996 0.192856
15946.51953 0.192838
15947.33984 0.19282
15948.16016 0.192801
15948.96973 0.192783
15949.79004 0.192765
15950.61035 0.192731
15951.42969 0.192691
15952.25000 0.192652
15953.05957 0.192612
15953.87988 0.192573
15954.70020 0.192534
15955.51953 0.192499
15956.33008 0.192468
15957.15039 0.192436
15957.96973 0.192405
15958.79004 0.192373
15959.61035 0.192342
15960.41992 0.192311
15961.24023 0.19228
15962.05957 0.192249
15962.87988 0.192219
15963.70020 0.192188
15964.51953 0.192157
15965.33008 0.192127
15966.15039 0.192098
15966.96973 0.192069
15967.79004 0.19204
15968.61035 0.192011
15969.42969 0.191982
15970.25000 0.191955
15971.05957 0.191931
15971.87988 0.191907
15972.70020 0.191884
15973.51953 0.19186
15974.33984 0.191836
15975.16016 0.191811
15975.98047 0.19178
15976.79980 0.191748
15977.62012 0.191717
15978.42969 0.191685
15979.25000 0.191653
15980.07031 0.191621
15980.88965 0.191586
15981.70996 0.191551
15982.53027 0.191516
15983.34961 0.191481
15984.16992 0.191446
15984.99023 0.191411
15985.80957 0.191388
15986.62988 0.191366
15987.45020 0.191343
15988.26953 0.19132
15989.08984 0.191298
15989.91016 0.191275
15990.73047 0.191235
15991.54980 0.191193
15992.37012 0.191152
15993.19043 0.19111
15994.00977 0.191068
15994.83008 0.191026
15995.65039 0.190997
15996.45996 0.190971
15997.29004 0.190945
15998.11035 0.190919
15998.92969 0.190893
15999.75000 0.190867
16000.57031 0.190854
16001.38965 0.190848
16002.20996 0.190841
16003.03027 0.190834
16003.84961 0.190828
16004.66992 0.190821
16005.49023 0.190807
16006.30957 0.190789
16007.12988 0.19077
16007.95020 0.190752
16008.76953 0.190733
16009.58984 0.190715
16010.41016 0.190698
16011.23047 0.190682
16012.04980 0.190667
16012.87012 0.190651
16013.70020 0.190636
16014.51953 0.19062
16015.33984 0.190604
16016.16016 0.190588
16016.98047 0.190571
16017.79980 0.190554
16018.62012 0.190537
16019.44043 0.19052
16020.25977 0.190503
16021.08008 0.190488
16021.91016 0.190473
16022.73047 0.190458
16023.54980 0.190443
16024.37012 0.190427
16025.19043 0.190412
16026.00977 0.190397
16026.83008 0.190381
16027.66016 0.190366
16028.48047 0.19035
16029.29980 0.190334
16030.12012 0.190319
16030.94043 0.190305
16031.76953 0.190291
16032.58984 0.190277
16033.41016 0.190264
16034.23047 0.19025
16035.04980 0.190236
16035.87988 0.190227
16036.70020 0.190217
16037.51953 0.190208
16038.33984 0.190199
16039.16016 0.190189
16039.99023 0.19018
16040.80957 0.190165
16041.62988 0.19015
16042.45020 0.190135
16043.28027 0.19012
16044.09961 0.190105
16044.91992 0.190089
16045.74023 0.190082
16046.57031 0.190076
16047.38965 0.190069
16048.20996 0.190062
16049.03027 0.190056
16049.86035 0.190049
16050.67969 0.190042
16051.50000 0.190034
16052.32031 0.190026
16053.15039 0.190018
16053.96973 0.19001
16054.79004 0.190002
16055.62012 0.189995
16056.44043 0.189987
16057.25977 0.18998
16058.08008 0.189972
16058.91016 0.189965
16059.73047 0.189957
16060.54980 0.189952
16061.37988 0.189947
16062.20020 0.189943
16063.03027 0.189938
16063.84961 0.189934
16064.66992 0.189929
16065.50000 0.189922
16066.32031 0.189912
16067.13965 0.189902
16067.96973 0.189892
16068.79004 0.189883
16069.61035 0.189873
16070.44043 0.189869
16071.25977 0.189869
16072.08984 0.18987
16072.91016 0.189871
16073.73047 0.189872
16074.55957 0.189872
16075.37988 0.189873
16076.20996 0.189875
16077.03027 0.189876
16077.84961 0.189877
16078.67969 0.189878
16079.50000 0.189879
16080.33008 0.189882
16081.15039 0.189886
16081.98047 0.18989
16082.79980 0.189894
16083.62012 0.189898
16084.45020 0.189902
16085.26953 0.189903
16086.09961 0.189895
16086.91992 0.189887
16087.75000 0.18988
16088.57031 0.189872
16089.40039 0.189864
16090.21973 0.18986
16091.04980 0.189865
16091.87012 0.18987
16092.70020 0.189875
16093.51953 0.189881
16094.34961 0.189886
16095.16992 0.18989
16096.00000 0.189889
16096.82031 0.189889
16097.65039 0.189889
16098.46973 0.189888
16099.29980 0.189888
16100.12012 0.18989
16100.95020 0.189904
16101.76953 0.189918
16102.59961 0.189932
16103.41992 0.189946
16104.25000 0.18996
16105.08008 0.189975
16105.90039 0.189993
16106.73047 0.190012
16107.54980 0.19003
16108.37988 0.190049
16109.20020 0.190067
16110.03027 0.190086
16110.86035 0.190101
16111.67969 0.190116
16112.50977 0.190132
16113.33008 0.190147
16114.16016 0.190163
16114.99023 0.190178
16115.80957 0.190179
16116.63965 0.19018
16117.45996 0.19018
16118.29004 0.19018
16119.12012 0.190181
16119.94043 0.190182
16120.76953 0.190206
16121.59961 0.190232
16122.41992 0.190259
16123.25000 0.190285
16124.08008 0.190311
16124.90039 0.190338
16125.73047 0.19036
16126.54980 0.190381
16127.37988 0.190403
16128.20996 0.190425
16129.04004 0.190446
16129.86035 0.190468
16130.69043 0.19049
16131.51953 0.190511
16132.33984 0.190533
16133.16992 0.190554
16134.00000 0.190576
16134.82031 0.190598
16135.65039 0.190628
16136.48047 0.19066
16137.30957 0.190693
16138.12988 0.190725
16138.95996 0.190758
16139.79004 0.19079
16140.62012 0.190808
16141.44043 0.190822
16142.26953 0.190836
16143.09961 0.19085
16143.91992 0.190863
16144.75000 0.190877
16145.58008 0.190907
16146.41016 0.190943
16147.24023 0.19098
16148.05957 0.191016
16148.88965 0.191053
16149.71973 0.191089
16150.54980 0.191117
16151.37988 0.191141
16152.20020 0.191164
16153.03027 0.191187
16153.86035 0.191211
16154.69043 0.191234
16155.51953 0.191271
16156.33984 0.191317
16157.16992 0.191362
16158.00000 0.191408
16158.83008 0.191453
16159.66016 0.191499
16160.49023 0.191531
16161.30957 0.191554
16162.13965 0.191577
16162.96973 0.1916
16163.79980 0.191623
16164.62988 0.191646
16165.45996 0.191675
16166.29004 0.191709
16167.11035 0.191743
16167.94043 0.191776
16168.76953 0.19181
16169.59961 0.191844
16170.42969 0.191876
16171.25977 0.191905
16172.08984 0.191934
16172.91992 0.191964
16173.75000 0.191993
16174.57031 0.192022
16175.40039 0.192058
16176.23047 0.1921
16177.05957 0.192142
16177.88965 0.192185
16178.71973 0.192227
16179.54980 0.192269
16180.37988 0.192312
16181.20996 0.192356
16182.04004 0.192399
16182.87012 0.192443
16183.70020 0.192487
16184.53027 0.19253
16185.36035 0.192574
16186.19043 0.192617
16187.01953 0.19266
16187.84961 0.192703
16188.67969 0.192746
16189.50977 0.19279
16190.33984 0.192831
16191.16992 0.192872
16192.00000 0.192912
16192.83008 0.192952
16193.66016 0.192992
16194.49023 0.193032
16195.32031 0.193078
16196.15039 0.193133
16196.98047 0.193188
16197.80957 0.193242
16198.63965 0.193297
16199.46973 0.193352
16200.29980 0.193402
16201.12988 0.193444
16201.95996 0.193487
16202.79004 0.193529
16203.62012 0.193571
16204.45020 0.193614
16205.28027 0.193657
16206.11035 0.193702
16206.94043 0.193747
16207.76953 0.193792
16208.61035 0.193837
16209.44043 0.193882
16210.26953 0.193925
16211.09961 0.193967
16211.92969 0.194008
16212.75977 0.194049
16213.58984 0.194091
16214.41992 0.194132
16215.25000 0.194177
16216.08008 0.19423
16216.91992 0.194283
16217.75000 0.194336
16218.58008 0.194389
16219.41016 0.194443
16220.24023 0.194495
16221.07031 0.194546
16221.91016 0.194597
16222.74023 0.194648
16223.57031 0.194699
16224.40039 0.19475
16225.23047 0.194799
16226.05957 0.194843
16226.90039 0.194887
16227.73047 0.194931
16228.55957 0.194975
16229.38965 0.195019
16230.21973 0.195067
16231.05957 0.195123
16231.88965 0.19518
16232.71973 0.195237
16233.54980 0.195293
16234.37988 0.19535
16235.21973 0.195405
16236.04980 0.195459
16236.87988 0.195512
16237.70996 0.195565
16238.54980 0.195619
16239.37988 0.195672
16240.20996 0.195723
16241.04004 0.195771
16241.87988 0.195818
16242.70996 0.195865
16243.54004 0.195913
16244.37012 0.19596
16245.20996 0.196011
16246.04004 0.196074
16246.87012 0.196137
16247.70996 0.196201
16248.54004 0.196264
16249.37012 0.196327
16250.20020 0.196389
16251.04004 0.196447
16251.87012 0.196505
16252.70020 0.196563
16253.54004 0.196621
16254.37012 0.196679
16255.20020 0.196737
16256.04004 0.196795
16256.87012 0.196853
16257.70020 0.196911
16258.54004 0.196969
16259.37012 0.197027
16260.20020 0.197085
16261.04004 0.197144
16261.87012 0.197203
16262.70020 0.197262
16263.54004 0.197321
16264.37012 0.19738
16265.20996 0.197439
16266.04004 0.197501
16266.87012 0.197563
16267.70996 0.197624
16268.54004 0.197686
16269.37012 0.197747
16270.20996 0.19781
16271.04004 0.197875
16271.87988 0.19794
16272.70996 0.198005
16273.54004 0.19807
16274.37988 0.198135
16275.20996 0.198197
16276.04980 0.19825
16276.87988 0.198304
16277.71973 0.198358
16278.54980 0.198412
16279.38965 0.198466
16280.21973 0.198522
16281.04980 0.198584
16281.88965 0.198647
16282.71973 0.19871
16283.55957 0.198772
16284.38965 0.198835
16285.23047 0.198899
16286.05957 0.198967
16286.90039 0.199036
16287.73047 0.199104
16288.57031 0.199173
16289.40039 0.199241
16290.24023 0.199307
16291.07031 0.199369
16291.91016 0.19943
16292.74023 0.199491
16293.58008 0.199552
16294.41016 0.199613
16295.25000 0.199674
16296.08008 0.199737
16296.91992 0.1998
16297.75977 0.199863
16298.58984 0.199926
16299.42969 0.199989
16300.25977 0.200056
16301.09961 0.200132
16301.92969 0.200207
16302.76953 0.200283
16303.61035 0.200358
16304.44043 0.200434
16305.28027 0.200503
16306.11035 0.200561
16306.95020 0.200618
16307.78027 0.200675
16308.62012 0.200733
16309.45996 0.20079
16310.29004 0.200851
16311.12988 0.200918
16311.95996 0.200985
16312.79980 0.201052
16313.63965 0.20112
16314.46973 0.201187
16315.30957 0.201252
16316.15039 0.201314
16316.98047 0.201377
16317.82031 0.201439
16318.66016 0.201501
16319.49023 0.201564
16320.33008 0.20163
16321.16992 0.201703
16322.00000 0.201777
16322.83984 0.20185
16323.67969 0.201923
16324.50977 0.201996
16325.34961 0.202067
16326.19043 0.202134
16327.01953 0.202202
16327.86035 0.202269
16328.70020 0.202336
16329.53027 0.202403
16330.37012 0.202473
16331.20996 0.202547
16332.04980 0.20262
16332.87988 0.202694
16333.71973 0.202767
16334.55957 0.202841
16335.40039 0.202908
16336.23047 0.202968
16337.07031 0.203028
16337.91016 0.203088
16338.75000 0.203148
16339.58008 0.203208
16340.41992 0.203274
16341.25977 0.203347
16342.09961 0.20342
16342.92969 0.203492
16343.76953 0.203565
16344.61035 0.203637
16345.45020 0.203702
16346.29004 0.203759
16347.12012 0.203817
16347.95996 0.203875
16348.79980 0.203932
16349.63965 0.20399
16350.48047 0.204054
16351.30957 0.204122
16352.15039 0.20419
16352.99023 0.204259
16353.83008 0.204326
16354.66992 0.204395
16355.50000 0.204467
16356.33984 0.204542
16357.17969 0.204617
16358.01953 0.204693
16358.86035 0.204768
16359.70020 0.204843
16360.54004 0.204906
16361.37988 0.204963
16362.20996 0.205019
16363.04980 0.205076
16363.88965 0.205132
16364.73047 0.205189
16365.57031 0.205253
16366.41016 0.205321
16367.25000 0.205388
16368.08984 0.205456
16368.92969 0.205523
16369.75977 0.205591
16370.59961 0.20566
16371.44043 0.20573
16372.28027 0.205799
16373.12012 0.205869
16373.95996 0.205938
16374.79980 0.206008
16375.63965 0.206063
16376.48047 0.206115
16377.32031 0.206166
16378.16016 0.206217
16379.00000 0.206268
16379.83984 0.20632
16380.67969 0.206379
16381.51953 0.20644
16382.36035 0.206501
16383.20020 0.206562
16384.03906 0.206623
16384.88086 0.206685
16385.72070 0.206764
16386.56055 0.206846
16387.40039 0.206929
16388.24023 0.207011
16389.08008 0.207094
16389.91992 0.207176
16390.75977 0.207234
16391.59961 0.207289
16392.43945 0.207344
16393.27930 0.207399
16394.11914 0.207454
16394.96094 0.20751
16395.80078 0.207581
16396.64062 0.207653
16397.48047 0.207726
16398.32031 0.207798
16399.16016 0.207871
16400.00000 0.207943
16400.83984 0.208006
16401.67969 0.208069
16402.52930 0.208132
16403.36914 0.208195
16404.21094 0.208258
16405.05078 0.20832
16405.89062 0.208373
16406.73047 0.208425
16407.57031 0.208477
16408.41016 0.208529
16409.25000 0.208581
16410.08984 0.208635
16410.93945 0.208703
16411.77930 0.208771
16412.61914 0.208838
16413.46094 0.208906
16414.30078 0.208974
16415.14062 0.209041
16415.98047 0.209108
16416.82031 0.209175
16417.66992 0.209242
16418.50977 0.20931
16419.34961 0.209377
16420.18945 0.20944
16421.02930 0.209491
16421.86914 0.209542
16422.72070 0.209594
16423.56055 0.209645
16424.40039 0.209696
16425.24023 0.209749
16426.08984 0.209805
16426.92969 0.209862
16427.76953 0.209919
16428.60938 0.209975
16429.44922 0.210032
16430.28906 0.210091
16431.14062 0.210155
16431.98047 0.21022
16432.82031 0.210284
16433.66992 0.210348
16434.50977 0.210413
16435.34961 0.21047
16436.18945 0.210519
16437.03906 0.210567
16437.88086 0.210615
16438.72070 0.210664
16439.56055 0.210712
16440.41016 0.21077
16441.25000 0.210838
16442.08984 0.210906
16442.93945 0.210974
16443.77930 0.211041
16444.61914 0.211109
16445.46094 0.211167
16446.31055 0.211216
16447.15039 0.211265
16447.99023 0.211313
16448.83984 0.211363
16449.67969 0.211412
16450.51953 0.211466
16451.36914 0.211524
16452.21094 0.211582
16453.05078 0.21164
16453.90039 0.211698
16454.74023 0.211756
16455.58008 0.211816
16456.42969 0.211876
16457.26953 0.211937
16458.10938 0.211997
16458.96094 0.212058
16459.80078 0.212118
16460.64062 0.212171
16461.49023 0.212222
16462.33008 0.212273
16463.17969 0.212323
16464.01953 0.212374
16464.86914 0.212424
16465.71094 0.212473
16466.55078 0.212521
16467.40039 0.212568
16468.24023 0.212617
16469.08984 0.212665
16469.92969 0.212713
16470.76953 0.212764
16471.61914 0.212817
16472.46094 0.212869
16473.31055 0.212921
16474.15039 0.212973
16475.00000 0.213026
16475.83984 0.213081
16476.68945 0.213137
16477.52930 0.213193
16478.38086 0.213249
16479.22070 0.213305
16480.06055 0.21336
16480.91016 0.213405
16481.75000 0.21345
16482.59961 0.213495
16483.43945 0.21354
16484.28906 0.213585
16485.13086 0.213629
16485.98047 0.21367
16486.82031 0.213712
16487.66992 0.213753
16488.51953 0.213794
16489.35938 0.213836
16490.21094 0.21388
16491.05078 0.213935
16491.90039 0.21399
16492.74023 0.214045
16493.58984 0.214101
16494.42969 0.214156
16495.27930 0.214206
16496.11914 0.214248
16496.97070 0.214289
16497.81055 0.21433
16498.66016 0.214371
16499.50977 0.214413
16500.34961 0.214454
16501.19922 0.214495
16502.03906 0.214536
16502.89062 0.214577
16503.74023 0.214618
16504.58008 0.214659
16505.42969 0.214704
16506.27930 0.214753
16507.11914 0.214803
16507.97070 0.214852
16508.81055 0.214901
16509.66016 0.21495
16510.50977 0.214994
16511.34961 0.215033
16512.19922 0.215073
16513.03906 0.215113
16513.89062 0.215153
16514.74023 0.215193
16515.58008 0.215233
16516.42969 0.215272
16517.27930 0.215311
16518.13086 0.215351
16518.97070 0.215391
16519.82031 0.21543
16520.66992 0.21547
16521.50977 0.215509
16522.35938 0.215549
16523.21094 0.215588
16524.05078 0.215628
16524.90039 0.215668
16525.75000 0.215707
16526.59961 0.215747
16527.43945 0.215786
16528.28906 0.215826
16529.14062 0.215866
16529.98047 0.215905
16530.83008 0.215957
16531.67969 0.216008
16532.52930 0.21606
16533.36914 0.216111
16534.22070 0.216163
16535.07031 0.216213
16535.91992 0.216242
16536.75977 0.216272
16537.60938 0.216301
16538.46094 0.21633
16539.31055 0.21636
16540.16016 0.216392
16541.00000 0.216439
16541.84961 0.216486
16542.69922 0.216532
16543.55078 0.216579
16544.40039 0.216626
16545.24023 0.216667
16546.08984 0.216693
16546.93945 0.216718
16547.78906 0.216744
16548.64062 0.216769
16549.48047 0.216795
16550.33008 0.216825
16551.17969 0.216864
16552.02930 0.216902
16552.88086 0.216941
16553.73047 0.216979
16554.58008 0.217018
16555.41992 0.217059
16556.26953 0.217102
16557.11914 0.217145
16557.97070 0.217188
16558.82031 0.217231
16559.66992 0.217275
16560.51953 0.217306
16561.36914 0.217328
16562.21094 0.217351
16563.06055 0.217374
16563.91016 0.217397
16564.75977 0.21742
16565.60938 0.217458
16566.46094 0.217502
16567.31055 0.217546
16568.16016 0.21759
16569.00977 0.217635
16569.85938 0.217679
16570.71094 0.217714
16571.56055 0.217748
16572.41016 0.217782
16573.25977 0.217816
16574.10938 0.21785
16574.96094 0.217884
16575.80078 0.217916
16576.65039 0.217948
16577.50977 0.21798
16578.35938 0.218012
16579.21094 0.218045
16580.05078 0.218076
16580.90039 0.218094
16581.75000 0.218112
16582.60938 0.21813
16583.46094 0.218148
16584.30078 0.218166
16585.15039 0.218187
16586.00977 0.218217
16586.85938 0.218248
16587.71094 0.218278
16588.56055 0.218309
16589.41016 0.218339
16590.25977 0.218373
16591.10938 0.218414
16591.96094 0.218455
16592.81055 0.218497
16593.66016 0.218538
16594.50977 0.218579
16595.35938 0.218612
16596.21094 0.218635
16597.06055 0.218658
16597.91016 0.21868
16598.75977 0.218703
16599.61914 0.218725
16600.46094 0.218752
16601.32031 0.218783
16602.16992 0.218813
16603.01953 0.218844
16603.86914 0.218875
16604.72070 0.218905
16605.57031 0.21895
16606.41992 0.219001
16607.27930 0.219053
16608.13086 0.219105
16608.98047 0.219156
16609.83008 0.219208
16610.67969 0.219242
16611.52930 0.219271
16612.38086 0.2193
16613.24023 0.219329
16614.08984 0.219359
16614.93945 0.219388
16615.78906 0.219422
16616.64062 0.219456
16617.49023 0.219491
16618.34961 0.219526
16619.19922 0.21956
16620.05078 0.219594
16620.90039 0.219623
16621.75000 0.219653
16622.60938 0.219682
16623.46094 0.219711
16624.31055 0.21974
16625.16016 0.21977
16626.01953 0.219806
16626.86914 0.219843
16627.72070 0.219879
16628.57031 0.219915
16629.41992 0.219951
16630.27930 0.219986
16631.13086 0.220016
16631.98047 0.220046
16632.83008 0.220076
16633.68945 0.220106
16634.53906 0.220137
16635.39062 0.220167
16636.25000 0.220198
16637.09961 0.220229
16637.94922 0.22026
16638.80078 0.220291
16639.66016 0.220321
16640.50977 0.220363
16641.35938 0.220411
16642.22070 0.22046
16643.07031 0.220508
16643.91992 0.220556
16644.77930 0.220605
16645.63086 0.220637
16646.48047 0.220663
16647.33984 0.220689
16648.18945 0.220715
16649.03906 0.220741
16649.90039 0.220767
16650.75000 0.220794
16651.59961 0.220821
16652.46094 0.220849
16653.31055 0.220876
16654.16016 0.220904
16655.01953 0.220931
16655.86914 0.220953
16656.73047 0.220975
16657.58008 0.220996
16658.42969 0.221018
16659.28906 0.22104
16660.14062 0.221065
16661.00000 0.221107
16661.84961 0.221148
16662.69922 0.22119
16663.56055 0.221232
16664.41016 0.221274
16665.26953 0.221315
16666.11914 0.221355
16666.97070 0.221395
16667.83008 0.221435
16668.67969 0.221475
16669.53906 0.221515
16670.39062 0.221547
16671.25000 0.221569
16672.09961 0.221591
16672.96094 0.221614
16673.81055 0.221636
16674.66992 0.221659
16675.51953 0.221686
16676.38086 0.221716
16677.23047 0.221747
16678.08984 0.221777
16678.93945 0.221807
16679.80078 0.221838
16680.65039 0.221861
16681.50977 0.221883
16682.35938 0.221905
16683.22070 0.221927
16684.07031 0.221949
16684.92969 0.221971
16685.77930 0.222007
16686.64062 0.222044
16687.49023 0.22208
16688.34961 0.222118
16689.21094 0.222155
16690.06055 0.222191
16690.91992 0.222219
16691.76953 0.222247
16692.63086 0.222276
16693.48047 0.222304
16694.33984 0.222332
16695.19922 0.22236
16696.05078 0.222385
16696.91016 0.22241
16697.75977 0.222435
16698.61914 0.222459
16699.47070 0.222484
16700.33008 0.22251
16701.18945 0.222537
16702.03906 0.222564
16702.90039 0.22259
16703.75977 0.222617
16704.60938 0.222644
16705.47070 0.222672
16706.32031 0.222701
16707.17969 0.22273
16708.03906 0.222759
16708.89062 0.222788
16709.75000 0.222817
16710.60938 0.222846
16711.46094 0.222875
16712.32031 0.222905
16713.17969 0.222934
16714.02930 0.222963
16714.89062 0.222993
16715.75000 0.223019
16716.59961 0.223045
16717.46094 0.22307
16718.32031 0.223096
16719.17969 0.223122
16720.02930 0.223147
16720.89062 0.223165
16721.75000 0.223183
16722.59961 0.223201
16723.46094 0.223219
16724.32031 0.223237
16725.17969 0.223257
16726.02930 0.223283
16726.89062 0.22331
16727.75000 0.223337
16728.60938 0.223363
16729.46094 0.22339
16730.32031 0.223415
16731.17969 0.223438
16732.03906 0.223462
16732.89062 0.223485
16733.75000 0.223508
16734.60938 0.223531
16735.47070 0.223554
16736.33008 0.223576
16737.17969 0.223598
16738.03906 0.223619
16738.90039 0.223641
16739.75977 0.223663
16740.61914 0.223692
16741.47070 0.223724
16742.33008 0.223756
16743.18945 0.223788
16744.05078 0.22382
16744.91016 0.223852
16745.76953 0.223881
16746.61914 0.22391
16747.48047 0.223938
16748.33984 0.223967
16749.19922 0.223995
16750.06055 0.224022
16750.91992 0.224022
16751.77930 0.224022
16752.63086 0.224022
16753.49023 0.224023
16754.34961 0.224023
16755.21094 0.224032
16756.07031 0.224072
16756.92969 0.224112
16757.78906 0.224152
16758.65039 0.224192
16759.50977 0.224232
16760.36914 0.224264
16761.22070 0.224287
16762.08008 0.224309
16762.93945 0.224332
16763.80078 0.224355
16764.66016 0.224377
16765.51953 0.2244
16766.38086 0.224422
16767.24023 0.224444
16768.09961 0.224466
16768.96094 0.224489
16769.82031 0.224511
16770.67969 0.224539
16771.53906 0.224568
16772.40039 0.224598
16773.25977 0.224627
16774.11914 0.224657
16774.98047 0.224686
16775.83984 0.224697
16776.69922 0.224708
16777.56055 0.224718
16778.41992 0.224728
16779.27930 0.224739
16780.14062 0.224751
16781.00000 0.224773
16781.85938 0.224795
16782.72070 0.224817
16783.58008 0.224839
16784.43945 0.224861
16785.30078 0.224884
16786.16016 0.22491
16787.01953 0.224935
16787.88086 0.224961
16788.74023 0.224986
16789.59961 0.225012
16790.46094 0.225038
16791.32031 0.225065
16792.18945 0.225091
16793.05078 0.225118
16793.91016 0.225145
16794.76953 0.225172
16795.63086 0.225192
16796.49023 0.22521
16797.34961 0.225228
16798.21094 0.225246
16799.07031 0.225264
16799.92969 0.225281
16800.78906 0.225292
16801.66016 0.225302
16802.51953 0.225311
16803.38086 0.225321
16804.24023 0.225331
16805.09961 0.225344
16805.96094 0.225375
16806.83008 0.225407
16807.68945 0.225438
16808.55078 0.22547
16809.41016 0.225502
16810.26953 0.225528
16811.13086 0.225542
16812.00000 0.225557
16812.85938 0.225571
16813.72070 0.225586
16814.58008 0.2256
16815.43945 0.22562
16816.30078 0.225644
16817.16992 0.225668
16818.02930 0.225693
16818.89062 0.225717
16819.75000 0.225742
16820.61914 0.225748
16821.48047 0.225747
16822.33984 0.225746
16823.19922 0.225745
16824.07031 0.225744
16824.92969 0.225743
16825.78906 0.225772
16826.65039 0.225804
16827.51953 0.225837
16828.38086 0.225869
16829.24023 0.225901
16830.09961 0.225932
16830.97070 0.225947
16831.83008 0.225963
16832.68945 0.225979
16833.55078 0.225995
16834.41992 0.226011
16835.27930 0.226028
16836.14062 0.226049
16837.00977 0.226069
16837.86914 0.22609
16838.73047 0.22611
16839.59961 0.226131
16840.46094 0.226148
16841.32031 0.226163
16842.18945 0.226177
16843.05078 0.226191
16843.91016 0.226206
16844.77930 0.22622
16845.64062 0.226242
16846.50000 0.226266
16847.36914 0.226291
16848.23047 0.226315
16849.09961 0.226339
16849.96094 0.226364
16850.82031 0.22637
16851.68945 0.226376
16852.55078 0.226381
16853.41016 0.226387
16854.27930 0.226392
16855.14062 0.2264
16856.00977 0.226418
16856.86914 0.226437
16857.73047 0.226455
16858.59961 0.226473
16859.46094 0.226492
16860.33008 0.22651
16861.18945 0.22653
16862.06055 0.22655
16862.91992 0.226569
16863.78906 0.226589
16864.65039 0.226608
16865.50977 0.226626
16866.38086 0.226641
16867.24023 0.226657
16868.10938 0.226673
16868.97070 0.226688
16869.83984 0.226704
16870.69922 0.226718
16871.57031 0.226733
16872.42969 0.226747
16873.30078 0.226761
16874.16016 0.226776
16875.02930 0.22679
16875.89062 0.226805
16876.75977 0.22682
16877.61914 0.226834
16878.49023 0.226849
16879.34961 0.226864
16880.22070 0.226876
16881.08008 0.226884
16881.94922 0.226891
16882.81055 0.226898
16883.67969 0.226905
16884.53906 0.226912
16885.41016 0.226922
16886.27930 0.226933
16887.14062 0.226945
16888.00977 0.226956
16888.86914 0.226967
16889.74023 0.226979
16890.60938 0.226982
16891.47070 0.226982
16892.33984 0.226981
16893.19922 0.226981
16894.07031 0.22698
16894.93945 0.22698
16895.80078 0.226983
16896.66992 0.226985
16897.52930 0.226988
16898.40039 0.226991
16899.26953 0.226994
16900.13086 0.226996
16901.00000 0.226998
16901.86914 0.227
16902.73047 0.227001
16903.59961 0.227003
16904.46094 0.227004
16905.33008 0.227008
16906.19922 0.227015
16907.06055 0.227022
16907.92969 0.227029
16908.80078 0.227036
16909.66016 0.227043
16910.52930 0.227054
16911.40039 0.227068
16912.26953 0.227081
16913.13086 0.227094
16914.00000 0.227108
16914.86914 0.227121
16915.73047 0.227121
16916.59961 0.227118
16917.47070 0.227114
16918.33984 0.227111
16919.19922 0.227108
16920.07031 0.227106
16920.93945 0.22711
16921.80078 0.227113
16922.66992 0.227117
16923.53906 0.227121
16924.41016 0.227125
16925.27930 0.227127
16926.14062 0.227129
16927.00977 0.22713
16927.88086 0.227131
16928.75000 0.227132
16929.60938 0.227133
16930.48047 0.227129
16931.34961 0.227121
16932.22070 0.227113
16933.08984 0.227105
16933.94922 0.227098
16934.82031 0.22709
16935.68945 0.227079
16936.56055 0.227068
16937.42969 0.227057
16938.28906 0.227046
16939.16016 0.227035
16940.02930 0.227024
16940.90039 0.227025
16941.76953 0.227025
16942.64062 0.227026
16943.50977 0.227027
16944.36914 0.227028
16945.24023 0.227027
16946.10938 0.227022
16946.98047 0.227018
16947.84961 0.227014
16948.72070 0.227009
16949.58984 0.227005
16950.46094 0.227002
16951.32031 0.227001
16952.18945 0.226999
16953.06055 0.226998
16953.92969 0.226996
16954.80078 0.226995
16955.66992 0.226984
16956.53906 0.22697
16957.41016 0.226957
16958.27930 0.226943
16959.15039 0.22693
16960.01953 0.226916
16960.88086 0.226905
16961.75977 0.226893
16962.63086 0.226882
16963.49023 0.22687
16964.35938 0.226858
16965.23047 0.226849
16966.09961 0.226843
16966.97070 0.226838
16967.83984 0.226833
16968.71094 0.226828
16969.58008 0.226822
16970.44922 0.226812
16971.32031 0.226797
16972.18945 0.226782
16973.06055 0.226767
16973.92969 0.226751
16974.80078 0.226736
16975.66992 0.226724
16976.53906 0.226713
16977.41016 0.226702
16978.27930 0.226691
16979.15039 0.22668
16980.02930 0.226668
16980.89062 0.226653
16981.76953 0.226638
16982.64062 0.226622
16983.50977 0.226607
16984.38086 0.226591
16985.25000 0.226575
16986.11914 0.226557
16986.99023 0.226539
16987.85938 0.226521
16988.73047 0.226503
16989.59961 0.226485
16990.47070 0.22648
16991.33984 0.226488
16992.21094 0.226495
16993.08984 0.226503
16993.96094 0.226511
16994.83008 0.226518
16995.69922 0.226489
16996.57031 0.22645
16997.43945 0.226412
16998.31055 0.226373
16999.18945 0.226334
17000.06055 0.226295
17000.92969 0.226247
17001.80078 0.226199
17002.66992 0.226151
17003.53906 0.226103
17004.41016 0.226054
17005.28906 0.226007
17006.16016 0.22596
17007.02930 0.225914
17007.90039 0.225868
17008.76953 0.225821
17009.64062 0.225775
17010.51953 0.225728
17011.39062 0.225682
17012.25977 0.225635
17013.13086 0.225588
17014.00977 0.225541
17014.88086 0.225494
17015.75000 0.225429
17016.61914 0.225361
17017.49023 0.225294
17018.36914 0.225226
17019.24023 0.225158
17020.10938 0.225093
17020.98047 0.225051
17021.85938 0.225008
17022.73047 0.224966
17023.59961 0.224923
17024.47070 0.224881
17025.34961 0.224826
17026.22070 0.224753
17027.08984 0.224681
17027.97070 0.224608
17028.83984 0.224535
17029.71094 0.224463
17030.58984 0.224395
17031.46094 0.22433
17032.33008 0.224266
17033.21094 0.224201
17034.08008 0.224136
17034.94922 0.224072
17035.82031 0.224015
17036.69922 0.22396
17037.57031 0.223904
17038.44922 0.223848
17039.32031 0.223792
17040.18945 0.223736
17041.06055 0.223676
17041.93945 0.223617
17042.81055 0.223557
17043.68945 0.223498
17044.56055 0.223439
17045.42969 0.223378
17046.31055 0.223316
17047.17969 0.223253
17048.05078 0.223191
17048.92969 0.223129
17049.80078 0.223067
17050.67969 0.223006
17051.55078 0.222946
17052.42969 0.222885
17053.30078 0.222825
17054.16992 0.222765
17055.05078 0.222704
17055.91992 0.22264
17056.80078 0.222575
17057.66992 0.22251
17058.53906 0.222446
17059.41992 0.222381
17060.28906 0.222314
17061.16992 0.222241
17062.03906 0.222169
17062.91992 0.222097
17063.78906 0.222024
17064.66992 0.221952
17065.53906 0.221886
17066.41992 0.221824
17067.28906 0.221763
17068.16992 0.221701
17069.03906 0.221639
17069.91992 0.221577
17070.78906 0.221507
17071.66992 0.221435
17072.53906 0.221363
17073.41992 0.221292
17074.28906 0.22122
17075.16992 0.221145
17076.03906 0.221055
17076.91992 0.220965
17077.78906 0.220875
17078.66992 0.220785
17079.53906 0.220695
17080.41992 0.220616
17081.30078 0.22055
17082.16992 0.220483
17083.05078 0.220417
17083.91992 0.220351
17084.80078 0.220284
17085.67969 0.220215
17086.55078 0.220144
17087.42969 0.220073
17088.30078 0.220002
17089.17969 0.219932
17090.05078 0.21986
17090.92969 0.219777
17091.81055 0.219693
17092.67969 0.21961
17093.56055 0.219527
17094.43945 0.219443
17095.31055 0.219363
17096.18945 0.219287
17097.06055 0.219211
17097.93945 0.219135
17098.82031 0.219059
17099.69922 0.218983
17100.57031 0.218913
17101.44922 0.218846
17102.32031 0.218778
17103.19922 0.218711
17104.08008 0.218643
17104.96094 0.218576
17105.83008 0.218511
17106.71094 0.218445
17107.58984 0.21838
17108.46094 0.218315
17109.33984 0.21825
17110.22070 0.218183
17111.08984 0.218111
17111.97070 0.218039
17112.84961 0.217967
17113.73047 0.217895
17114.59961 0.217823
17115.48047 0.217756
17116.35938 0.217692
17117.24023 0.217628
17118.10938 0.217564
17118.99023 0.2175
17119.86914 0.217436
17120.75000 0.217357
17121.61914 0.217274
17122.50000 0.217191
17123.38086 0.217109
17124.25977 0.217026
17125.13086 0.216945
17126.00977 0.216875
17126.89062 0.216804
17127.76953 0.216734
17128.65039 0.216663
17129.52930 0.216592
17130.40039 0.216516
17131.27930 0.216433
17132.16016 0.21635
17133.03906 0.216267
17133.91992 0.216184
17134.78906 0.2161
17135.66992 0.216028
17136.55078 0.215958
17137.42969 0.215888
17138.31055 0.215818
17139.18945 0.215749
17140.06055 0.215679
17140.93945 0.215609
17141.82031 0.215539
17142.69922 0.21547
17143.58008 0.2154
17144.46094 0.21533
17145.33984 0.215246
17146.22070 0.215138
17147.09961 0.215031
17147.97070 0.214923
17148.84961 0.214816
17149.73047 0.214708
17150.60938 0.214632
17151.49023 0.21457
17152.36914 0.214509
17153.25000 0.214447
17154.13086 0.214385
17155.00977 0.214323
17155.89062 0.214249
17156.76953 0.214176
17157.65039 0.214102
17158.52930 0.214028
17159.41016 0.213954
17160.28906 0.213873
17161.16992 0.213776
17162.03906 0.213679
17162.92969 0.213582
17163.80078 0.213485
17164.68945 0.213387
17165.56055 0.213303
17166.44922 0.213224
17167.32031 0.213146
17168.21094 0.213068
17169.08008 0.21299
17169.96094 0.212912
17170.84961 0.212829
17171.72070 0.212745
17172.60938 0.212662
17173.49023 0.212578
17174.36914 0.212495
17175.25000 0.21241
17176.13086 0.212321
17177.00977 0.212233
17177.89062 0.212145
17178.76953 0.212056
17179.65039 0.211968
17180.52930 0.211886
17181.41016 0.211809
17182.28906 0.211731
17183.16992 0.211654
17184.05078 0.211576
17184.93945 0.211499
17185.82031 0.21141
17186.69922 0.211321
17187.58008 0.211231
17188.46094 0.211141
17189.33984 0.211052
17190.22070 0.210963
17191.09961 0.210879
17191.98047 0.210794
17192.86914 0.210709
17193.75000 0.210624
17194.63086 0.210539
17195.50977 0.21045
17196.39062 0.210358
17197.26953 0.210266
17198.15039 0.210174
17199.03906 0.210082
17199.91992 0.20999
17200.80078 0.209903
17201.67969 0.209817
17202.56055 0.20973
17203.44922 0.209643
17204.33008 0.209557
17205.21094 0.209469
17206.08984 0.20938
17206.97070 0.209291
17207.85938 0.209202
17208.74023 0.209113
17209.61914 0.209023
17210.50000 0.208945
17211.38086 0.208874
17212.26953 0.208804
17213.15039 0.208733
17214.02930 0.208663
17214.91016 0.208593
17215.78906 0.208502
17216.67969 0.208408
17217.56055 0.208315
17218.43945 0.208222
17219.33008 0.208129
17220.21094 0.20804
17221.08984 0.207964
17221.97070 0.207889
17222.85938 0.207814
17223.74023 0.207738
17224.61914 0.207663
17225.50977 0.207572
17226.39062 0.207469
17227.26953 0.207367
17228.16016 0.207264
17229.03906 0.207161
17229.91992 0.207059
17230.80078 0.206974
17231.68945 0.20689
17232.57031 0.206806
17233.46094 0.206722
17234.33984 0.206638
17235.22070 0.206558
17236.10938 0.206486
17236.99023 0.206415
17237.86914 0.206344
17238.75977 0.206273
17239.64062 0.206201
17240.51953 0.206122
17241.41016 0.206037
17242.28906 0.205952
17243.17969 0.205867
17244.06055 0.205782
17244.93945 0.205697
17245.83008 0.2056
17246.71094 0.205503
17247.59961 0.205405
17248.48047 0.205307
17249.36914 0.205209
17250.25000 0.20512
17251.13086 0.205052
17252.01953 0.204984
17252.90039 0.204916
17253.78906 0.204848
17254.66992 0.20478
17255.55078 0.204702
17256.43945 0.204619
17257.32031 0.204536
17258.21094 0.204452
17259.08984 0.204369
17259.98047 0.204286
17260.85938 0.204196
17261.75000 0.204105
17262.63086 0.204015
17263.51953 0.203924
17264.40039 0.203834
17265.28906 0.203747
17266.16992 0.203668
17267.06055 0.203589
17267.93945 0.20351
17268.83008 0.203431
17269.71094 0.203352
17270.59961 0.20328
17271.48047 0.203211
17272.36914 0.203143
17273.25977 0.203074
17274.14062 0.203005
17275.02930 0.202936
17275.91016 0.202858
17276.80078 0.20278
17277.67969 0.202702
17278.57031 0.202624
17279.46094 0.202546
17280.33984 0.202467
17281.23047 0.202385
17282.10938 0.202303
17283.00000 0.202221
17283.88086 0.202139
17284.76953 0.202057
17285.66016 0.201975
17286.53906 0.201892
17287.42969 0.201808
17288.31055 0.201725
17289.19922 0.201642
17290.08984 0.20156
17290.97070 0.201488
17291.85938 0.201415
17292.75000 0.201343
17293.63086 0.201271
17294.51953 0.201198
17295.41016 0.201128
17296.28906 0.201062
17297.17969 0.200995
17298.07031 0.200929
17298.94922 0.200862
17299.83984 0.200795
17300.73047 0.200719
17301.60938 0.200642
17302.50000 0.200564
17303.39062 0.200486
17304.27930 0.200408
17305.16016 0.200333
17306.05078 0.200268
17306.93945 0.200203
17307.82031 0.200137
17308.71094 0.200072
17309.59961 0.200007
17310.49023 0.199938
17311.36914 0.199867
17312.25977 0.199795
17313.15039 0.199723
17314.03906 0.199652
17314.91992 0.19958
17315.81055 0.199512
17316.69922 0.199443
17317.58984 0.199375
17318.47070 0.199306
17319.35938 0.199238
17320.25000 0.199167
17321.14062 0.199088
17322.02930 0.199009
17322.91016 0.19893
17323.80078 0.198851
17324.68945 0.198772
17325.58008 0.19871
17326.46094 0.198657
17327.34961 0.198603
17328.24023 0.19855
17329.13086 0.198497
17330.01953 0.198443
17330.91016 0.198378
17331.78906 0.198312
17332.67969 0.198247
17333.57031 0.198181
17334.46094 0.198116
17335.34961 0.198054
17336.24023 0.197997
17337.13086 0.19794
17338.01953 0.197883
17338.90039 0.197827
17339.78906 0.19777
17340.67969 0.197717
17341.57031 0.197666
17342.46094 0.197615
17343.34961 0.197564
17344.24023 0.197512
17345.13086 0.197461
17346.01953 0.197408
17346.91016 0.197356
17347.78906 0.197303
17348.68945 0.197251
17349.57031 0.197198
17350.46094 0.197143
17351.34961 0.197085
17352.24023 0.197027
17353.13086 0.196969
17354.01953 0.19691
17354.91016 0.196852
17355.80078 0.196808
17356.68945 0.196766
17357.58008 0.196724
17358.47070 0.196682
17359.35938 0.196639
17360.25000 0.196602
17361.14062 0.196576
17362.02930 0.19655
17362.91992 0.196525
17363.81055 0.196499
17364.69922 0.196473
17365.58984 0.196442
17366.48047 0.196408
17367.36914 0.196375
17368.25977 0.196341
17369.15039 0.196307
17370.03906 0.196273
17370.92969 0.196231
17371.82031 0.196189
17372.71094 0.196148
17373.60938 0.196106
17374.50000 0.196064
17375.39062 0.196033
17376.27930 0.196015
17377.16992 0.195996
17378.06055 0.195978
17378.94922 0.19596
17379.83984 0.195941
17380.73047 0.195907
17381.61914 0.19587
17382.50977 0.195832
17383.40039 0.195795
17384.28906 0.195757
17385.18945 0.195723
17386.08008 0.195704
17386.97070 0.195685
17387.85938 0.195666
17388.75000 0.195647
17389.64062 0.195627
17390.53906 0.195611
17391.42969 0.195597
17392.32031 0.195582
17393.21094 0.195568
17394.09961 0.195554
17394.99023 0.19554
17395.88086 0.195552
17396.77930 0.195565
17397.66992 0.195578
17398.56055 0.195591
17399.44922 0.195603
17400.33984 0.195602
17401.24023 0.195577
17402.13086 0.195552
17403.01953 0.195528
17403.91016 0.195503
17404.80078 0.195478
17405.69922 0.195483
17406.58984 0.195496
17407.48047 0.195509
17408.36914 0.195522
17409.26953 0.195535
17410.16016 0.195546
17411.05078 0.195551
17411.93945 0.195555
17412.83984 0.19556
17413.73047 0.195564
17414.61914 0.195569
17415.50977 0.195578
17416.41016 0.195591
17417.30078 0.195603
17418.18945 0.195616
17419.08984 0.195629
17419.98047 0.195642
17420.86914 0.195655
17421.75977 0.195668
17422.66016 0.195681
17423.55078 0.195694
17424.43945 0.195707
17425.33984 0.195727
17426.23047 0.195761
17427.11914 0.195795
17428.01953 0.195829
17428.91016 0.195862
17429.80078 0.195896
17430.69922 0.19592
17431.58984 0.195942
17432.48047 0.195963
17433.38086 0.195985
17434.26953 0.196006
17435.16992 0.196031
17436.06055 0.196071
17436.94922 0.19611
17437.84961 0.196149
17438.74023 0.196188
17439.63086 0.196228
17440.52930 0.196269
17441.41992 0.19631
17442.32031 0.196352
17443.21094 0.196394
17444.10938 0.196436
17445.00000 0.196477
17445.89062 0.196521
17446.78906 0.196565
17447.67969 0.196609
17448.58008 0.196653
17449.47070 0.196696
17450.36914 0.19674
17451.25977 0.196784
17452.16016 0.196828
17453.05078 0.196872
17453.94922 0.196916
17454.83984 0.19696
17455.73047 0.197017
17456.63086 0.197076
17457.52930 0.197136
17458.41992 0.197195
17459.31055 0.197254
17460.21094 0.197313
17461.10938 0.197369
17462.00000 0.197425
17462.89062 0.19748
17463.78906 0.197536
17464.68945 0.197592
17465.58008 0.197649
17466.48047 0.197705
17467.36914 0.197762
17468.26953 0.197818
17469.16016 0.197875
17470.06055 0.197933
17470.94922 0.198012
17471.84961 0.198092
17472.74023 0.198172
17473.64062 0.198251
17474.53906 0.198331
17475.42969 0.198408
17476.33008 0.198484
17477.22070 0.198559
17478.11914 0.198634
17479.01953 0.198709
17479.91016 0.198784
17480.81055 0.198873
17481.71094 0.198963
17482.59961 0.199054
17483.50000 0.199144
17484.39062 0.199235
17485.28906 0.199321
17486.18945 0.199399
17487.08008 0.199477
17487.98047 0.199555
17488.86914 0.199633
17489.76953 0.199711
17490.66992 0.199797
17491.56055 0.199886
17492.46094 0.199975
17493.35938 0.200065
17494.25977 0.200154
17495.15039 0.200242
17496.05078 0.20032
17496.94922 0.200397
17497.83984 0.200475
17498.74023 0.200553
17499.64062 0.200631
17500.52930 0.200741
17501.42969 0.200872
17502.33008 0.201002
17503.22070 0.201133
17504.11914 0.201264
17505.01953 0.201394
17505.91992 0.201491
17506.81055 0.201588
17507.71094 0.201685
17508.60938 0.201782
17509.50977 0.201878
17510.40039 0.201987
17511.30078 0.202109
17512.19922 0.202232
17513.09961 0.202354
17514.00000 0.202477
17514.89062 0.202599
17515.78906 0.202693
17516.68945 0.202783
17517.58984 0.202874
17518.49023 0.202964
17519.38086 0.203054
17520.27930 0.203151
17521.17969 0.203261
17522.08008 0.203371
17522.98047 0.203481
17523.88086 0.203591
17524.76953 0.203701
17525.66992 0.203822
17526.57031 0.203948
17527.47070 0.204073
17528.36914 0.204199
17529.26953 0.204324
17530.16016 0.204448
17531.06055 0.204567
17531.96094 0.204685
17532.85938 0.204803
17533.75977 0.204922
17534.66016 0.20504
17535.56055 0.205169
17536.46094 0.205303
17537.35938 0.205437
17538.25000 0.205571
17539.15039 0.205706
17540.05078 0.205841
17540.94922 0.205984
17541.84961 0.206127
17542.75000 0.206271
17543.65039 0.206415
17544.55078 0.206558
17545.44922 0.206696
17546.34961 0.206827
17547.25000 0.206959
17548.15039 0.20709
17549.03906 0.207222
17549.94922 0.207354
17550.84961 0.207494
17551.74023 0.207635
17552.64062 0.207776
17553.53906 0.207917
17554.43945 0.208057
17555.33984 0.208196
17556.24023 0.20833
17557.14062 0.208464
17558.03906 0.208598
17558.93945 0.208732
17559.83984 0.208866
17560.74023 0.209014
17561.64062 0.209165
17562.53906 0.209316
17563.44922 0.209466
17564.34961 0.209617
17565.25000 0.209768
17566.15039 0.209921
17567.05078 0.210073
17567.94922 0.210225
17568.84961 0.210377
17569.75000 0.21053
17570.65039 0.210692
17571.55078 0.210858
17572.44922 0.211024
17573.34961 0.21119
17574.25000 0.211356
17575.15039 0.211521
17576.05078 0.211678
17576.96094 0.211835
17577.85938 0.211992
17578.75977 0.212149
17579.66016 0.212307
17580.56055 0.21247
17581.46094 0.212637
17582.35938 0.212805
17583.25977 0.212972
17584.16992 0.213139
17585.07031 0.213304
17585.97070 0.213447
17586.86914 0.21359
17587.76953 0.213732
17588.66992 0.213875
17589.57031 0.214018
17590.48047 0.21417
17591.38086 0.21433
17592.27930 0.21449
17593.17969 0.214649
17594.08008 0.21481
17594.99023 0.21497
17595.89062 0.215154
17596.78906 0.215339
17597.68945 0.215523
17598.58984 0.215708
17599.50000 0.215893
17600.40039 0.216073
17601.30078 0.216246
17602.19922 0.216418
17603.10938 0.216591
17604.00977 0.216764
17604.91016 0.216937
17605.81055 0.217116
17606.71094 0.217295
17607.61914 0.217475
17608.51953 0.217655
17609.41992 0.217835
17610.33008 0.218009
17611.23047 0.218172
17612.13086 0.218335
17613.03906 0.218499
17613.93945 0.218662
17614.83984 0.218825
17615.74023 0.218994
17616.65039 0.219164
17617.55078 0.219334
17618.44922 0.219504
17619.35938 0.219674
17620.25977 0.219846
17621.16016 0.220023
17622.07031 0.220201
17622.97070 0.220378
17623.86914 0.220556
17624.77930 0.220733
17625.67969 0.220904
17626.58008 0.221072
17627.49023 0.22124
17628.39062 0.221408
17629.28906 0.221576
17630.19922 0.221745
17631.09961 0.221919
17632.00977 0.222093
17632.91016 0.222267
17633.81055 0.22244
17634.72070 0.222614
17635.61914 0.222788
17636.52930 0.222962
17637.42969 0.223136
17638.33008 0.22331
17639.24023 0.223484
17640.14062 0.223654
17641.05078 0.223802
17641.94922 0.223951
17642.85938 0.224099
17643.75977 0.224247
17644.66016 0.224395
17645.57031 0.224541
17646.47070 0.224684
17647.38086 0.224828
17648.27930 0.224971
17649.18945 0.225114
17650.08984 0.225263
17651.00000 0.22546
17651.90039 0.225657
17652.81055 0.225854
17653.71094 0.226051
17654.61914 0.226248
17655.51953 0.226403
17656.42969 0.226528
17657.33008 0.226653
17658.24023 0.226778
17659.14062 0.226903
17660.05078 0.227029
17660.94922 0.227186
17661.85938 0.227343
17662.75977 0.227499
17663.66992 0.227656
17664.57031 0.227813
17665.48047 0.227954
17666.39062 0.22808
17667.28906 0.228206
17668.19922 0.228333
17669.09961 0.228459
17670.00977 0.228586
17670.91016 0.22873
17671.82031 0.228875
17672.73047 0.229019
17673.63086 0.229163
17674.53906 0.229308
17675.44922 0.229435
17676.34961 0.229546
17677.25977 0.229657
17678.16016 0.229767
17679.07031 0.229878
17679.97070 0.229989
17680.88086 0.230106
17681.78906 0.230222
17682.69922 0.230339
17683.59961 0.230456
17684.50977 0.230573
17685.41016 0.23068
17686.32031 0.230776
17687.23047 0.230872
17688.13086 0.230968
17689.03906 0.231064
17689.94922 0.23116
17690.85938 0.231263
17691.75977 0.231366
17692.66992 0.231469
17693.58008 0.231572
17694.48047 0.231675
17695.39062 0.231775
17696.30078 0.231868
17697.19922 0.231962
17698.10938 0.232056
17699.01953 0.23215
17699.92969 0.232243
17700.83008 0.232308
17701.74023 0.232369
17702.65039 0.232431
17703.56055 0.232492
17704.46094 0.232554
17705.36914 0.232609
17706.27930 0.232654
17707.18945 0.232699
17708.08984 0.232744
17709.00000 0.232789
17709.91016 0.232834
17710.82031 0.232892
17711.72070 0.23295
17712.63086 0.233009
17713.53906 0.233068
17714.44922 0.233126
17715.35938 0.233168
17716.26953 0.233185
17717.16992 0.233202
17718.08008 0.233218
17718.99023 0.233235
17719.90039 0.233252
17720.81055 0.233271
17721.71094 0.233291
17722.63086 0.233311
17723.52930 0.233331
17724.43945 0.233351
17725.34961 0.233359
17726.25977 0.23335
17727.16992 0.233341
17728.08008 0.233332
17728.98047 0.233323
17729.89062 0.233314
17730.80078 0.233306
17731.71094 0.233299
17732.61914 0.233291
17733.52930 0.233284
17734.43945 0.233276
17735.34961 0.233258
17736.25977 0.233221
17737.16992 0.233185
17738.08008 0.233149
17738.98047 0.233113
17739.89062 0.233077
17740.80078 0.233033
17741.71094 0.232987
17742.61914 0.232942
17743.52930 0.232897
17744.43945 0.232851
17745.34961 0.232796
17746.25977 0.232723
17747.16992 0.232652
17748.08008 0.232579
17748.99023 0.232507
17749.90039 0.232435
17750.81055 0.232353
17751.72070 0.232269
17752.63086 0.232186
17753.53906 0.232102
17754.44922 0.232019
17755.35938 0.231929
17756.26953 0.231828
17757.17969 0.231727
17758.08984 0.231626
17759.00000 0.231525
17759.91016 0.231424
17760.82031 0.231291
17761.73047 0.231154
17762.64062 0.231017
17763.55078 0.230879
17764.46094 0.230742
17765.38086 0.230603
17766.28906 0.23046
17767.19922 0.230317
17768.10938 0.230174
17769.01953 0.23003
17769.92969 0.229887
17770.83984 0.22973
17771.75000 0.229572
17772.66016 0.229414
17773.57031 0.229255
17774.48047 0.229097
17775.40039 0.228937
17776.31055 0.228775
17777.22070 0.228614
17778.13086 0.228452
17779.03906 0.228291
17779.94922 0.228129
17780.86914 0.227915
17781.77930 0.227699
17782.68945 0.227482
17783.59961 0.227265
17784.50977 0.227049
17785.41992 0.226833
17786.33008 0.22662
17787.25000 0.226406
17788.16016 0.226192
17789.07031 0.225978
17789.98047 0.225765
17790.89062 0.225495
17791.80078 0.225225
17792.72070 0.224955
17793.63086 0.224684
17794.53906 0.224413
17795.46094 0.224146
17796.36914 0.223882
17797.27930 0.223619
17798.18945 0.223355
17799.09961 0.223092
17800.01953 0.222828
17800.92969 0.222548
17801.83984 0.222267
17802.75000 0.221986
17803.66992 0.221705
17804.58008 0.221425
17805.49023 0.221125
17806.40039 0.220811
17807.32031 0.220496
17808.23047 0.220181
17809.14062 0.219866
17810.06055 0.219551
17810.97070 0.219232
17811.88086 0.218914
17812.78906 0.218595
17813.71094 0.218276
17814.61914 0.217957
17815.53906 0.217616
17816.44922 0.217261
17817.35938 0.216905
17818.27930 0.216548
17819.18945 0.216192
17820.09961 0.215832
17821.01953 0.215436
17821.92969 0.215039
17822.83984 0.214644
17823.75977 0.214248
17824.66992 0.213852
17825.58008 0.213449
17826.50000 0.213042
17827.41016 0.212636
17828.33008 0.212229
17829.24023 0.211823
17830.15039 0.211417
17831.07031 0.211008
17831.98047 0.2106
17832.90039 0.210191
17833.81055 0.209783
17834.72070 0.209374
17835.64062 0.208958
17836.55078 0.208539
17837.47070 0.208119
17838.38086 0.2077
17839.28906 0.207281
17840.21094 0.206852
17841.11914 0.206396
17842.03906 0.20594
17842.96094 0.205483
17843.86914 0.205027
17844.77930 0.204571
17845.69922 0.204085
17846.60938 0.203591
17847.52930 0.203097
17848.43945 0.202602
17849.35938 0.202108
17850.26953 0.201603
17851.18945 0.201074
17852.09961 0.200545
17853.01953 0.200017
17853.92969 0.199487
17854.84961 0.198958
17855.75977 0.198438
17856.67969 0.197918
17857.59961 0.197399
17858.50977 0.19688
17859.42969 0.196361
17860.33984 0.195835
17861.25977 0.195298
17862.16992 0.194762
17863.08984 0.194225
17864.00000 0.193688
17864.91992 0.19315
17865.83984 0.192605
17866.75000 0.192058
17867.66992 0.191511
17868.58008 0.190964
17869.50000 0.190417
17870.41992 0.189855
17871.33008 0.189274
17872.25000 0.188693
17873.16016 0.188112
17874.08008 0.18753
17875.00000 0.186949
17875.91016 0.18638
17876.83008 0.18581
17877.75000 0.18524
17878.66016 0.184671
17879.58008 0.184102
17880.50000 0.18349
17881.41016 0.182844
17882.33008 0.182198
17883.25000 0.18155
17884.16016 0.180904
17885.08008 0.180259
17886.00000 0.17963
17886.91016 0.179002
17887.83008 0.178372
17888.75000 0.177744
17889.66016 0.177115
17890.58008 0.176476
17891.50000 0.175831
17892.41992 0.175184
17893.33008 0.17454
17894.25000 0.173894
17895.16992 0.173251
17896.08008 0.17262
17897.00000 0.171988
17897.91992 0.171356
17898.83984 0.170726
17899.75000 0.170094
17900.66992 0.169455
17901.58984 0.168812
17902.50977 0.16817
17903.42969 0.167528
17904.33984 0.166885
17905.25977 0.166225
17906.17969 0.165522
17907.09961 0.164818
17908.01953 0.164114
17908.92969 0.16341
17909.84961 0.162706
17910.76953 0.162015
17911.68945 0.161327
17912.60938 0.160638
17913.51953 0.15995
17914.43945 0.159262
17915.35938 0.158556
17916.27930 0.157823
17917.19922 0.157092
17918.11914 0.156361
17919.03906 0.155628
17919.94922 0.154896
17920.86914 0.15418
17921.78906 0.153463
17922.71094 0.152748
17923.63086 0.152032
17924.55078 0.151315
17925.46094 0.15061
17926.38086 0.149913
17927.30078 0.149218
17928.22070 0.148521
17929.14062 0.147825
17930.06055 0.147128
17930.98047 0.146426
17931.90039 0.145725
17932.82031 0.145023
17933.74023 0.14432
17934.66016 0.14362
17935.58008 0.142901
17936.50000 0.142172
17937.41992 0.141443
17938.33008 0.140716
17939.25000 0.139987
17940.16992 0.139258
17941.08984 0.13853
17942.00977 0.137801
17942.92969 0.137073
17943.84961 0.136344
17944.76953 0.135615
17945.68945 0.134879
17946.60938 0.13414
17947.52930 0.1334
17948.44922 0.132661
17949.36914 0.131922
17950.28906 0.131176
17951.21094 0.130415
17952.13086 0.129654
17953.05078 0.128892
17953.97070 0.128131
17954.89062 0.12737
17955.81055 0.12665
17956.74023 0.125934
17957.66016 0.125219
17958.58008 0.124504
17959.50000 0.123788
17960.41992 0.123073
17961.33984 0.122358
17962.25977 0.121642
17963.17969 0.120927
17964.09961 0.12021
17965.01953 0.119495
17965.93945 0.118788
17966.85938 0.118081
17967.78906 0.117374
17968.71094 0.116666
17969.63086 0.11596
17970.55078 0.11525
17971.47070 0.114539
17972.39062 0.11383
17973.31055 0.113119
17974.23047 0.112407
17975.16016 0.111699
17976.08008 0.111005
17977.00000 0.11031
17977.91992 0.109615
17978.83984 0.10892
17979.75977 0.108224
17980.68945 0.107505
17981.60938 0.106777
17982.52930 0.106049
17983.44922 0.105321
17984.36914 0.104593
17985.28906 0.103875
17986.22070 0.103178
17987.14062 0.10248
17988.06055 0.101783
17988.98047 0.101085
17989.90039 0.100388
17990.83008 0.099707
17991.75000 0.099026
17992.66992 0.098347
17993.58984 0.097667
17994.51953 0.096988
17995.43945 0.096319
17996.35938 0.095665
17997.27930 0.095011
17998.21094 0.094355
17999.13086 0.093701
18000.05078 0.093046
18000.97070 0.092399
18001.90039 0.091752
18002.82031 0.091104
18003.74023 0.090457
18004.66992 0.089809
18005.58984 0.089155
18006.50977 0.088499
18007.43945 0.087841
18008.35938 0.087185
18009.27930 0.086528
18010.21094 0.085868
18011.13086 0.0852
18012.05078 0.084534
18012.97070 0.083866
18013.90039 0.083199
18014.82031 0.082531
18015.74023 0.081885
18016.66992 0.081242
18017.58984 0.080599
18018.51953 0.079956
18019.43945 0.079313
18020.35938 0.078695
18021.28906 0.078116
18022.21094 0.077536
18023.13086 0.076957
18024.06055 0.076378
18024.98047 0.075798
18025.91016 0.075215
18026.83008 0.074631
18027.75977 0.074047
18028.67969 0.073463
18029.59961 0.07288
18030.52930 0.072324
18031.44922 0.07179
18032.38086 0.071255
18033.30078 0.07072
18034.22070 0.070186
18035.15039 0.06965
18036.07031 0.069111
18037.00000 0.068572
18037.91992 0.068032
18038.84961 0.067493
18039.76953 0.066953
18040.69922 0.066408
18041.61914 0.06586
18042.55078 0.065313
18043.47070 0.064766
18044.40039 0.064218
18045.32031 0.063676
18046.25000 0.063141
18047.16992 0.062608
18048.09961 0.062073
18049.01953 0.061538
18049.94922 0.061004
18050.86914 0.060514
18051.80078 0.060027
18052.72070 0.059539
18053.65039 0.059051
18054.58008 0.058564
18055.50000 0.05808
18056.42969 0.057597
18057.34961 0.057114
18058.27930 0.056632
18059.19922 0.056149
18060.13086 0.055669
18061.05078 0.055204
18061.98047 0.05474
18062.91016 0.054275
18063.83008 0.05381
18064.75977 0.053345
18065.68945 0.052884
18066.60938 0.052424
18067.53906 0.051965
18068.46094 0.051505
18069.39062 0.051044
18070.32031 0.050596
18071.24023 0.050171
18072.16992 0.049744
18073.09961 0.049319
18074.01953 0.048894
18074.94922 0.048467
18075.88086 0.048031
18076.80078 0.047593
18077.73047 0.047155
18078.65039 0.046718
18079.58008 0.046279
18080.50977 0.045879
18081.43945 0.04551
18082.35938 0.04514
18083.28906 0.044771
18084.22070 0.044401
18085.14062 0.044031
18086.07031 0.043657
18087.00000 0.043283
18087.92969 0.042909
18088.84961 0.042536
18089.77930 0.042161
18090.71094 0.041804
18091.63086 0.041452
18092.56055 0.0411
18093.49023 0.040748
18094.41992 0.040397
18095.33984 0.040044
18096.26953 0.039689
18097.19922 0.039334
18098.13086 0.038979
18099.05078 0.038624
18099.98047 0.038269
18100.91016 0.037946
18101.83984 0.037625
18102.76953 0.037304
18103.69922 0.036984
18104.61914 0.036663
18105.55078 0.036324
18106.48047 0.035974
18107.41016 0.035623
18108.33984 0.035273
18109.25977 0.034923
18110.18945 0.03458
18111.11914 0.034268
18112.05078 0.033955
18112.98047 0.033643
18113.91016 0.03333
18114.83984 0.033018
18115.75977 0.03272
18116.68945 0.032425
18117.61914 0.03213
18118.55078 0.031834
18119.48047 0.03154
18120.41016 0.031262
18121.33984 0.031007
18122.26953 0.030752
18123.19922 0.030497
18124.11914 0.030242
18125.05078 0.029988
18125.98047 0.029741
18126.91016 0.029496
18127.83984 0.02925
18128.76953 0.029004
18129.69922 0.028758
18130.63086 0.02849
18131.56055 0.028211
18132.49023 0.027932
18133.41992 0.027654
18134.34961 0.027376
18135.27930 0.027112
18136.21094 0.026882
18137.13086 0.026652
18138.06055 0.026423
18139.00000 0.026193
18139.92969 0.025963
18140.85938 0.025748
18141.78906 0.025534
18142.71094 0.02532
18143.64062 0.025107
18144.57031 0.024893
18145.50977 0.024674
18146.43945 0.02445
18147.36914 0.024227
18148.30078 0.024003
18149.23047 0.02378
18150.16016 0.023557
18151.08984 0.023338
18152.01953 0.023119
18152.94922 0.0229
18153.88086 0.022681
18154.81055 0.022462
18155.74023 0.022242
18156.66992 0.022021
18157.59961 0.021801
18158.52930 0.02158
18159.46094 0.02136
18160.39062 0.021162
18161.33008 0.020997
18162.25977 0.020832
18163.18945 0.020667
18164.11914 0.020501
18165.05078 0.020336
18165.98047 0.020168
18166.91016 0.02
18167.83984 0.019832
18168.77930 0.019663
18169.71094 0.019495
18170.64062 0.019322
18171.57031 0.019147
18172.50000 0.018971
18173.42969 0.018795
18174.35938 0.01862
18175.28906 0.018448
18176.23047 0.018285
18177.16016 0.018121
18178.08984 0.017958
18179.01953 0.017794
18179.96094 0.017631
18180.89062 0.017499
18181.82031 0.01737
18182.75000 0.01724
18183.67969 0.01711
18184.61914 0.01698
18185.55078 0.016838
18186.48047 0.016688
18187.41016 0.016538
18188.33984 0.016388
18189.27930 0.016237
18190.21094 0.01609
18191.14062 0.015952
18192.07031 0.015815
18193.00977 0.015677
18193.93945 0.015539
18194.86914 0.015402
18195.80078 0.015268
18196.74023 0.015135
18197.66992 0.015002
18198.59961 0.014868
18199.53906 0.014735
18200.47070 0.014608
18201.40039 0.014487
18202.33984 0.014365
18203.26953 0.014244
18204.19922 0.014123
18205.13086 0.013996
18206.07031 0.013837
18207.00000 0.013679
18207.93945 0.01352
18208.86914 0.013362
18209.80078 0.013204
18210.74023 0.013082
18211.66992 0.012971
18212.59961 0.01286
18213.53906 0.012749
18214.47070 0.012637
18215.40039 0.012535
18216.33984 0.012445
18217.26953 0.012355
18218.21094 0.012265
18219.14062 0.012175
18220.07031 0.012082
18221.00977 0.011962
18221.93945 0.011843
18222.86914 0.011723
18223.81055 0.011603
18224.74023 0.011483
18225.67969 0.011402
18226.60938 0.011336
18227.55078 0.01127
18228.48047 0.011204
18229.41992 0.011137
18230.34961 0.011051
18231.28906 0.010929
18232.22070 0.010807
18233.15039 0.010685
18234.08984 0.010564
18235.01953 0.010443
18235.96094 0.010373
18236.89062 0.010303
18237.83008 0.010233
18238.75977 0.010163
18239.69922 0.010093
18240.63086 0.01002
18241.57031 0.009945
18242.50000 0.00987
18243.43945 0.009796
18244.36914 0.009721
18245.31055 0.00964
18246.24023 0.009545
18247.17969 0.009451
18248.11914 0.009356
18249.05078 0.009262
18249.99023 0.009168
18250.91992 0.009102
18251.85938 0.009037
18252.78906 0.008972
18253.73047 0.008907
18254.66016 0.008842
18255.59961 0.00874
18256.53906 0.008618
18257.47070 0.008496
18258.41016 0.008374
18259.33984 0.008252
18260.27930 0.008155
18261.22070 0.008118
18262.15039 0.008081
18263.08984 0.008044
18264.02930 0.008006
18264.96094 0.007969
18265.90039 0.007914
18266.83008 0.007858
18267.76953 0.007803
18268.71094 0.007747
18269.64062 0.007691
18270.58008 0.007631
18271.51953 0.007569
18272.44922 0.007506
18273.39062 0.007444
18274.33008 0.007381
18275.25977 0.007323
18276.19922 0.007274
18277.14062 0.007225
18278.07031 0.007177
18279.00977 0.007128
18279.94922 0.007079
18280.88086 0.007034
18281.82031 0.006989
18282.75977 0.006943
18283.69922 0.006898
18284.63086 0.006853
18285.57031 0.006802
18286.50977 0.006748
18287.44922 0.006695
18288.38086 0.006641
18289.32031 0.006587
18290.25977 0.006532
18291.19922 0.006473
18292.13086 0.006415
18293.07031 0.006357
18294.00977 0.006299
18294.94922 0.00624
18295.88086 0.006194
18296.82031 0.006148
18297.75977 0.006103
18298.69922 0.006057
18299.64062 0.006011
18300.58008 0.005952
18301.50977 0.005885
18302.44922 0.005817
18303.39062 0.005749
18304.33008 0.005682
18305.26953 0.005618
18306.21094 0.005565
18307.14062 0.005513
18308.08008 0.00546
18309.01953 0.005407
18309.96094 0.005354
18310.90039 0.005346
18311.83984 0.005339
18312.77930 0.005333
18313.71094 0.005327
18314.65039 0.00532
18315.58984 0.005278
18316.52930 0.005214
18317.47070 0.00515
18318.41016 0.005087
18319.34961 0.005023
18320.28906 0.004971
18321.23047 0.004945
18322.16992 0.004919
18323.10938 0.004893
18324.03906 0.004867
18324.98047 0.004841
18325.91992 0.0048
18326.85938 0.004759
18327.80078 0.004718
18328.74023 0.004677
18329.67969 0.004636
18330.61914 0.004604
18331.56055 0.004575
18332.50000 0.004547
18333.43945 0.004519
18334.38086 0.004491
18335.32031 0.004454
18336.25977 0.004402
18337.19922 0.00435
18338.14062 0.004298
18339.08008 0.004246
18340.01953 0.004195
18340.96094 0.004179
18341.90039 0.004163
18342.83984 0.004147
18343.77930 0.00413
18344.72070 0.004114
18345.66016 0.004094
18346.59961 0.004072
18347.53906 0.004051
18348.48047 0.004029
18349.41992 0.004007
18350.36914 0.003985
18351.30078 0.003962
18352.25000 0.003939
18353.18945 0.003916
18354.13086 0.003894
18355.07031 0.00387
18356.00977 0.003844
18356.94922 0.003817
18357.89062 0.00379
18358.83008 0.003763
18359.76953 0.003736
18360.71094 0.003701
18361.66016 0.003664
18362.59961 0.003626
18363.53906 0.003589
18364.48047 0.003551
18365.41992 0.003517
18366.35938 0.003487
18367.30078 0.003457
18368.25000 0.003427
18369.18945 0.003398
18370.13086 0.003368
18371.07031 0.003338
18372.00977 0.003308
18372.96094 0.003279
18373.90039 0.003249
18374.83984 0.003219
18375.77930 0.003193
18376.72070 0.003168
18377.66016 0.003143
18378.60938 0.003118
18379.55078 0.003093
18380.49023 0.003077
18381.42969 0.003069
18382.38086 0.003062
18383.32031 0.003054
18384.25977 0.003046
18385.19922 0.003032
18386.14062 0.002999
18387.08984 0.002965
18388.02930 0.002931
18388.97070 0.002898
18389.91992 0.002864
18390.85938 0.002871
18391.80078 0.002881
18392.74023 0.002892
18393.68945 0.002903
18394.63086 0.002914
18395.57031 0.002887
18396.51953 0.002837
18397.46094 0.002786
18398.40039 0.002735
18399.34961 0.002685
18400.28906 0.002649
18401.23047 0.002645
18402.17969 0.002642
18403.11914 0.002638
18404.06055 0.002634
18405.00977 0.002631
18405.94922 0.002596
18406.89062 0.002562
18407.83984 0.002528
18408.77930 0.002494
18409.72070 0.002459
18410.66992 0.002438
18411.60938 0.002423
18412.55078 0.002407
18413.50000 0.002392
18414.43945 0.002376
18415.39062 0.002357
18416.33008 0.002334
18417.27930 0.002311
18418.22070 0.002288
18419.16016 0.002265
18420.10938 0.002245
18421.05078 0.002249
18422.00000 0.002252
18422.93945 0.002256
18423.88086 0.002259
18424.83008 0.002263
18425.76953 0.002254
18426.72070 0.002243
18427.66016 0.002232
18428.60938 0.00222
18429.55078 0.002209
18430.50000 0.00219
18431.43945 0.002164
18432.39062 0.002139
18433.33008 0.002113
18434.27930 0.002087
18435.22070 0.002072
18436.16992 0.002088
18437.10938 0.002105
18438.06055 0.002122
18439.00000 0.002139
18439.94922 0.002155
18440.89062 0.002174
18441.83984 0.002193
18442.77930 0.002212
18443.73047 0.00223
18444.67969 0.002249
18445.61914 0.002204
18446.57031 0.002126
18447.50977 0.002047
18448.46094 0.001969
18449.40039 0.001891
18450.34961 0.001838
18451.28906 0.00183
18452.24023 0.001821
18453.18945 0.001813
18454.13086 0.001804
18455.08008 0.001797
18456.02930 0.001796
18456.97070 0.001795
18457.91992 0.001794
18458.85938 0.001794
18459.81055 0.001793
18460.75977 0.001769
18461.69922 0.00174
18462.65039 0.00171
18463.59961 0.001681
18464.53906 0.001652
18465.49023 0.001643
18466.43945 0.001655
18467.38086 0.001666
18468.33008 0.001678
18469.27930 0.00169
18470.22070 0.001697
18471.16992 0.001689
18472.11914 0.001682
18473.06055 0.001674
18474.00977 0.001667
18474.96094 0.001659
18475.90039 0.001637
18476.84961 0.001614
18477.80078 0.001591
18478.75000 0.001568
18479.68945 0.001545
18480.64062 0.001522
18481.58984 0.0015
18482.53906 0.001477
18483.48047 0.001454
18484.42969 0.001432
18485.38086 0.001422
18486.32031 0.001432
18487.26953 0.001443
18488.22070 0.001453
18489.16992 0.001463
18490.11914 0.001468
18491.06055 0.001438
18492.00977 0.001408
18492.96094 0.001377
18493.91016 0.001347
18494.85938 0.001316
18495.80078 0.00133
18496.75000 0.001351
18497.69922 0.001372
18498.65039 0.001393
18499.59961 0.001414
18500.53906 0.0014
18501.49023 0.001361
18502.43945 0.001322
18503.39062 0.001282
18504.33984 0.001243
18505.28906 0.001221
18506.24023 0.001239
18507.18945 0.001257
18508.13086 0.001275
18509.08008 0.001293
18510.02930 0.00131
18510.98047 0.001297
18511.92969 0.001283
18512.88086 0.00127
18513.83008 0.001257
18514.77930 0.001244
18515.73047 0.001247
18516.67969 0.001255
18517.63086 0.001263
18518.57031 0.001271
18519.51953 0.001279
18520.47070 0.001266
18521.41992 0.001231
18522.36914 0.001195
18523.32031 0.00116
18524.26953 0.001125
18525.22070 0.001102
18526.16992 0.001117
18527.11914 0.001133
18528.07031 0.001148
18529.01953 0.001163
18529.97070 0.001179
18530.91992 0.00117
18531.86914 0.001161
18532.82031 0.001151
18533.76953 0.001142
18534.72070 0.001133
18535.66992 0.001154
18536.61914 0.001188
18537.57031 0.001223
18538.51953 0.001257
18539.47070 0.001291
18540.41992 0.00129
18541.36914 0.001242
18542.32031 0.001195
18543.26953 0.001148
18544.22070 0.001101
18545.16992 0.001057
18546.11914 0.001028
18547.07031 0.000999
18548.02930 0.000969
18548.98047 0.00094
18549.92969 0.000911
18550.88086 0.000925
18551.83008 0.000944
18552.77930 0.000962
18553.73047 0.00098
18554.67969 0.000998
18555.63086 0.001003
18556.58984 0.001002
18557.53906 0.001
18558.49023 0.000999
18559.43945 0.000998
18560.39062 0.001
18561.33984 0.001008
18562.28906 0.001016
18563.24023 0.001024
18564.19922 0.001032
18565.15039 0.001036
18566.09961 0.001015
18567.05078 0.000995
18568.00000 0.000975
18568.96094 0.000955
18569.91016 0.000934
18570.85938 0.000932
18571.81055 0.000932
18572.75977 0.000932
18573.71094 0.000932
18574.66992 0.000932
18575.61914 0.000921
18576.57031 0.000904
18577.52930 0.000886
18578.48047 0.000869
18579.42969 0.000851
18580.38086 0.000844
18581.33008 0.00085
18582.28906 0.000856
18583.24023 0.000862
18584.18945 0.000868
18585.14062 0.000872
18586.09961 0.000862
18587.05078 0.000852
18588.00000 0.000841
18588.96094 0.000831
18589.91016 0.000821
18590.85938 0.00081
18591.81055 0.0008
18592.76953 0.000789
18593.72070 0.000779
18594.66992 0.000768
18595.63086 0.000762
18596.58008 0.000759
18597.53906 0.000755
18598.49023 0.000751
18599.43945 0.000747
18600.39062 0.000741
18601.34961 0.000731
18602.30078 0.000721
18603.25977 0.000711
18604.21094 0.000701
18605.16016 0.000693
18606.11914 0.000696
18607.07031 0.000699
18608.01953 0.000701
18608.98047 0.000704
18609.92969 0.000707
18610.89062 0.000685
18611.83984 0.000662
18612.78906 0.000639
18613.75000 0.000616
18614.69922 0.000593
18615.66016 0.000607
18616.60938 0.000637
18617.57031 0.000667
18618.51953 0.000697
18619.47070 0.000728
18620.42969 0.000739
18621.38086 0.000727
18622.33984 0.000715
18623.28906 0.000703
18624.25000 0.000691
18625.19922 0.000676
18626.16016 0.00065
18627.10938 0.000623
18628.07031 0.000596
18629.01953 0.000569
18629.98047 0.000542
18630.92969 0.000606
18631.89062 0.000673
18632.83984 0.00074
18633.80078 0.000807
18634.75000 0.000874
18635.71094 0.000859
18636.66016 0.000816
18637.61914 0.000773
18638.57031 0.00073
18639.52930 0.000687
18640.48047 0.000666
18641.43945 0.000668
18642.40039 0.00067
18643.34961 0.000672
18644.31055 0.000673
18645.25977 0.00068
18646.22070 0.000699
18647.17969 0.000718
18648.13086 0.000736
18649.08984 0.000755
18650.03906 0.000772
18651.00000 0.000746
18651.96094 0.00072
18652.91016 0.000694
18653.86914 0.000668
18654.82031 0.000642
18655.77930 0.000624
18656.74023 0.000607
18657.68945 0.000591
18658.65039 0.000575
18659.60938 0.000559
18660.56055 0.000554
18661.51953 0.000558
18662.48047 0.000561
18663.42969 0.000565
18664.39062 0.000568
18665.34961 0.000567
18666.30078 0.000555
18667.25977 0.000544
18668.22070 0.000532
18669.16992 0.000521
18670.13086 0.000511
18671.08984 0.000513
18672.03906 0.000514
18673.00000 0.000516
18673.96094 0.000518
18674.91992 0.00052
18675.88086 0.000525
18676.83008 0.000531
18677.78906 0.000536
18678.75000 0.000542
18679.71094 0.000548
18680.66016 0.000553
18681.61914 0.000559
18682.58008 0.000565
18683.53906 0.00057
18684.49023 0.000576
18685.44922 0.000575
18686.41016 0.000567
18687.36914 0.000559
18688.32031 0.00055
18689.27930 0.000542
18690.24023 0.000532
18691.19922 0.000515
18692.16016 0.000498
18693.11914 0.000482
18694.07031 0.000465
18695.02930 0.00045
18695.99023 0.00047
18696.94922 0.00049
18697.91016 0.00051
18698.86914 0.00053
18699.82031 0.000551
18700.77930 0.00054
18701.74023 0.000522
18702.69922 0.000505
18703.66016 0.000487
18704.61914 0.000469
18705.58008 0.000448
18706.53906 0.000425
18707.49023 0.000402
20578.23828 0.0
