# %ECSV 0.9
# ---
# datatype:
# - {name: wavelength, unit: Angstrom, datatype: float32}
# - {name: response, datatype: float32}
# meta: !!omap
# - {band_name: F160W}
# - {group_name: NICMOS2}
wavelength response
12128.20215 0.0
13475.78027 0.000401
13476.46973 0.000404
13477.16016 0.000407
13477.84961 0.00041
13478.54004 0.000413
13479.23047 0.000416
13479.91992 0.000419
13480.62012 0.000425
13481.30957 0.000431
13482.00000 0.000438
13482.69043 0.000444
13483.37988 0.00045
13484.07031 0.000456
13484.75977 0.000463
13485.45020 0.000466
13486.13965 0.000469
13486.83984 0.000471
13487.53027 0.000473
13488.21973 0.000476
13488.91016 0.000478
13489.59961 0.00048
13490.29004 0.000484
13490.98047 0.000489
13491.67969 0.000494
13492.37012 0.000499
13493.05957 0.000504
13493.75000 0.000509
13494.44043 0.000514
13495.12988 0.000518
13495.83008 0.000522
13496.51953 0.000525
13497.20996 0.000529
13497.90039 0.000532
13498.58984 0.000535
13499.29004 0.000539
13499.98047 0.000542
13500.66992 0.000548
13501.36035 0.000554
13502.04980 0.00056
13502.75000 0.000565
13503.44043 0.000571
13504.12988 0.000577
13504.82031 0.000583
13505.51953 0.000591
13506.20996 0.000599
13506.90039 0.000608
13507.58984 0.000617
13508.29004 0.000625
13508.98047 0.000634
13509.66992 0.000643
13510.36035 0.000649
13511.05957 0.000654
13511.75000 0.000658
13512.44043 0.000663
13513.12988 0.000667
13513.83008 0.000672
13514.51953 0.000677
13515.20996 0.000682
13515.90039 0.000689
13516.59961 0.000695
13517.29004 0.000702
13517.98047 0.000709
13518.67969 0.000715
13519.37012 0.000722
13520.05957 0.000729
13520.75977 0.000736
13521.45020 0.000744
13522.13965 0.000752
13522.83008 0.000759
13523.53027 0.000767
13524.21973 0.000775
13524.91992 0.000782
13525.61035 0.000791
13526.29980 0.000801
13527.00000 0.00081
13527.69043 0.000819
13528.37988 0.000828
13529.08008 0.000838
13529.76953 0.000847
13530.45996 0.000855
13531.16016 0.000863
13531.84961 0.00087
13532.54004 0.000878
13533.24023 0.000885
13533.92969 0.000893
13534.62988 0.0009
13535.32031 0.00091
13536.00977 0.000922
13536.70996 0.000934
13537.40039 0.000946
13538.08984 0.000958
13538.79004 0.000969
13539.48047 0.000981
13540.17969 0.000993
13540.87012 0.001003
13541.55957 0.001014
13542.25977 0.001025
13542.95020 0.001035
13543.65039 0.001046
13544.33984 0.001056
13545.04004 0.001067
13545.73047 0.001081
13546.41992 0.001094
13547.12012 0.001108
13547.80957 0.001121
13548.50977 0.001135
13549.20020 0.001149
13549.90039 0.001162
13550.58984 0.001176
13551.29004 0.00119
13551.98047 0.001204
13552.67969 0.001218
13553.37012 0.001232
13554.07031 0.001246
13554.75977 0.00126
13555.45996 0.001273
13556.15039 0.001284
13556.84961 0.001295
13557.54004 0.001306
13558.24023 0.001317
13558.92969 0.001329
13559.62988 0.00134
13560.32031 0.001353
13561.01953 0.001368
13561.70996 0.001383
13562.41016 0.001398
13563.09961 0.001413
13563.79980 0.001429
13564.49023 0.001444
13565.19043 0.001459
13565.87988 0.001477
13566.58008 0.001494
13567.26953 0.001511
13567.96973 0.001528
13568.66992 0.001546
13569.36035 0.001563
13570.05957 0.00158
13570.75000 0.001595
13571.45020 0.001609
13572.13965 0.001624
13572.83984 0.001639
13573.54004 0.001653
13574.23047 0.001668
13574.92969 0.001683
13575.62012 0.001702
13576.32031 0.001722
13577.00977 0.001742
13577.70996 0.001762
13578.41016 0.001782
13579.09961 0.001802
13579.79980 0.001822
13580.50000 0.001842
13581.19043 0.001862
13581.88965 0.001882
13582.58008 0.001902
13583.28027 0.001922
13583.98047 0.001942
13584.66992 0.001962
13585.37012 0.001983
13586.07031 0.002004
13586.75977 0.002025
13587.45996 0.002046
13588.15039 0.002067
13588.84961 0.002088
13589.54980 0.002109
13590.24023 0.002131
13590.94043 0.002157
13591.63965 0.002182
13592.33008 0.002207
13593.03027 0.002233
13593.73047 0.002258
13594.41992 0.002284
13595.12012 0.002309
13595.82031 0.002332
13596.51953 0.002356
13597.20996 0.002379
13597.91016 0.002403
13598.61035 0.002426
13599.29980 0.00245
13600.00000 0.002474
13600.70020 0.002502
13601.40039 0.00253
13602.08984 0.002558
13602.79004 0.002587
13603.49023 0.002615
13604.19043 0.002643
13604.87988 0.002672
13605.58008 0.002699
13606.28027 0.002726
13606.96973 0.002752
13607.66992 0.002779
13608.37012 0.002806
13609.07031 0.002833
13609.76953 0.002859
13610.45996 0.002892
13611.16016 0.002927
13611.86035 0.002962
13612.55957 0.002997
13613.25000 0.003032
13613.95020 0.003067
13614.65039 0.003102
13615.34961 0.003136
13616.04980 0.00317
13616.74023 0.003205
13617.44043 0.003239
13618.13965 0.003273
13618.83984 0.003307
13619.54004 0.003341
13620.23047 0.003376
13620.92969 0.003411
13621.62988 0.003447
13622.33008 0.003482
13623.03027 0.003518
13623.73047 0.003553
13624.41992 0.003588
13625.12012 0.003624
13625.82031 0.00366
13626.51953 0.003696
13627.21973 0.003731
13627.91992 0.003767
13628.62012 0.003803
13629.30957 0.003839
13630.00977 0.003875
13630.70996 0.003911
13631.41016 0.003948
13632.11035 0.003984
13632.80957 0.004021
13633.50977 0.004057
13634.20996 0.004093
13634.91016 0.00413
13635.59961 0.004168
13636.29980 0.004207
13637.00000 0.004246
13637.70020 0.004284
13638.40039 0.004323
13639.09961 0.004362
13639.79980 0.004401
13640.50000 0.004438
13641.20020 0.004475
13641.90039 0.004512
13642.59961 0.004549
13643.29004 0.004586
13643.99023 0.004623
13644.69043 0.00466
13645.38965 0.004704
13646.08984 0.004752
13646.79004 0.0048
13647.49023 0.004849
13648.19043 0.004898
13648.88965 0.004946
13649.58984 0.004995
13650.29004 0.005042
13650.99023 0.005087
13651.69043 0.005132
13652.38965 0.005178
13653.08984 0.005223
13653.79004 0.005268
13654.49023 0.005314
13655.19043 0.005358
13655.88965 0.0054
13656.58984 0.005442
13657.29004 0.005484
13657.99023 0.005526
13658.69043 0.005567
13659.38965 0.005609
13660.08984 0.005652
13660.79004 0.0057
13661.49023 0.005748
13662.19043 0.005796
13662.88965 0.005845
13663.58984 0.005893
13664.29004 0.005941
13664.99023 0.005989
13665.69043 0.006035
13666.38965 0.006081
13667.08984 0.006127
13667.79980 0.006173
13668.50000 0.006219
13669.20020 0.006265
13669.90039 0.00631
13670.59961 0.006361
13671.29980 0.006413
13672.00000 0.006465
13672.70020 0.006517
13673.40039 0.006568
13674.09961 0.00662
13674.79980 0.006672
13675.50000 0.006723
13676.20996 0.006775
13676.91016 0.006826
13677.61035 0.006878
13678.30957 0.006929
13679.00977 0.006981
13679.70996 0.007032
13680.41016 0.007085
13681.11035 0.00714
13681.82031 0.007195
13682.51953 0.007249
13683.21973 0.007303
13683.91992 0.007358
13684.62012 0.007413
13685.32031 0.007468
13686.01953 0.007523
13686.73047 0.007579
13687.42969 0.007634
13688.12988 0.00769
13688.83008 0.007745
13689.53027 0.007801
13690.24023 0.007856
13690.94043 0.007912
13691.63965 0.007967
13692.33984 0.008022
13693.04004 0.008078
13693.74023 0.008133
13694.45020 0.008189
13695.15039 0.008243
13695.84961 0.008293
13696.54980 0.008343
13697.25000 0.008393
13697.95996 0.008444
13698.66016 0.008494
13699.36035 0.008544
13700.05957 0.008595
13700.76953 0.008651
13701.46973 0.008707
13702.16992 0.008764
13702.87012 0.00882
13703.58008 0.008876
13704.28027 0.008933
13704.98047 0.008989
13705.67969 0.00905
13706.38965 0.00911
13707.08984 0.00917
13707.79004 0.009231
13708.49023 0.009291
13709.20020 0.009351
13709.90039 0.009412
13710.59961 0.009471
13711.29980 0.00953
13712.00977 0.00959
13712.70996 0.009649
13713.41016 0.009708
13714.12012 0.009768
13714.82031 0.009827
13715.51953 0.009889
13716.23047 0.009951
13716.92969 0.010013
13717.62988 0.010076
13718.33984 0.010138
13719.04004 0.010201
13719.74023 0.010263
13720.45020 0.01033
13721.15039 0.010398
13721.84961 0.010467
13722.55957 0.010535
13723.25977 0.010604
13723.95996 0.010672
13724.66992 0.010741
13725.37012 0.010807
13726.07031 0.010872
13726.78027 0.010937
13727.48047 0.011001
13728.17969 0.011066
13728.88965 0.011131
13729.58984 0.011195
13730.29980 0.011259
13731.00000 0.01132
13731.70020 0.011381
13732.41016 0.011442
13733.11035 0.011504
13733.82031 0.011565
13734.51953 0.011626
13735.21973 0.01169
13735.92969 0.01176
13736.62988 0.011829
13737.33984 0.011898
13738.04004 0.011968
13738.75000 0.012037
13739.45020 0.012107
13740.15039 0.012175
13740.86035 0.01224
13741.55957 0.012305
13742.26953 0.01237
13742.96973 0.012435
13743.67969 0.0125
13744.37988 0.012565
13745.08008 0.012631
13745.79004 0.01271
13746.49023 0.012788
13747.20020 0.012866
13747.90039 0.012945
13748.61035 0.013023
13749.30957 0.013102
13750.01953 0.01318
13750.71973 0.013263
13751.42969 0.013346
13752.12988 0.01343
13752.83984 0.013513
13753.54004 0.013596
13754.25000 0.013679
13754.95020 0.013763
13755.66016 0.013854
13756.36035 0.013945
13757.07031 0.014037
13757.76953 0.014129
13758.48047 0.014221
13759.17969 0.014312
13759.88965 0.014404
13760.58984 0.01449
13761.29980 0.014575
13762.00977 0.014659
13762.70996 0.014744
13763.41992 0.014829
13764.12012 0.014913
13764.83008 0.014998
13765.53027 0.01509
13766.24023 0.015185
13766.95020 0.015279
13767.65039 0.015374
13768.36035 0.015468
13769.05957 0.015563
13769.76953 0.015657
13770.46973 0.015755
13771.17969 0.015854
13771.88965 0.015953
13772.58984 0.016052
13773.29980 0.016151
13774.00000 0.01625
13774.70996 0.016349
13775.41992 0.016451
13776.12012 0.016554
13776.83008 0.016657
13777.54004 0.016761
13778.24023 0.016864
13778.95020 0.016968
13779.65039 0.017071
13780.36035 0.017178
13781.07031 0.017288
13781.76953 0.017398
13782.48047 0.017509
13783.19043 0.017619
13783.88965 0.017729
13784.59961 0.017839
13785.30957 0.017957
13786.00977 0.018083
13786.71973 0.018209
13787.42969 0.018335
13788.12988 0.018461
13788.83984 0.018587
13789.54980 0.018714
13790.25000 0.018842
13790.95996 0.018974
13791.66992 0.019106
13792.37012 0.019238
13793.08008 0.01937
13793.79004 0.019502
13794.50000 0.019634
13795.20020 0.019772
13795.91016 0.019926
13796.62012 0.020081
13797.33008 0.020235
13798.03027 0.02039
13798.74023 0.020544
13799.45020 0.020699
13800.15039 0.02085
13800.86035 0.020991
13801.57031 0.021131
13802.28027 0.021272
13802.98047 0.021412
13803.69043 0.021553
13804.40039 0.021694
13805.11035 0.021837
13805.82031 0.021997
13806.51953 0.022157
13807.23047 0.022316
13807.94043 0.022476
13808.65039 0.022636
13809.34961 0.022796
13810.05957 0.022958
13810.76953 0.023146
13811.48047 0.023333
13812.19043 0.02352
13812.88965 0.023707
13813.59961 0.023894
13814.30957 0.024081
13815.01953 0.024269
13815.73047 0.024479
13816.44043 0.024688
13817.13965 0.024898
13817.84961 0.025107
13818.55957 0.025317
13819.26953 0.025527
13819.98047 0.025736
13820.69043 0.025964
13821.38965 0.026193
13822.09961 0.026422
13822.80957 0.02665
13823.51953 0.026879
13824.23047 0.027108
13824.94043 0.027337
13825.65039 0.027561
13826.34961 0.027785
13827.05957 0.02801
13827.76953 0.028234
13828.48047 0.028458
13829.19043 0.028682
13829.90039 0.028906
13830.61035 0.029154
13831.32031 0.029406
13832.03027 0.029658
13832.74023 0.02991
13833.44043 0.030162
13834.15039 0.030413
13834.86035 0.030665
13835.57031 0.03092
13836.28027 0.031175
13836.99023 0.03143
13837.70020 0.031686
13838.41016 0.031941
13839.12012 0.032196
13839.83008 0.032452
13840.54004 0.032725
13841.25000 0.033005
13841.95996 0.033285
13842.66992 0.033564
13843.37988 0.033844
13844.08008 0.034124
13844.79004 0.034404
13845.50000 0.034701
13846.20996 0.035004
13846.91992 0.035308
13847.62988 0.035612
13848.33984 0.035916
13849.04980 0.03622
13849.75977 0.036524
13850.46973 0.036861
13851.17969 0.037214
13851.88965 0.037568
13852.59961 0.037922
13853.30957 0.038275
13854.01953 0.038629
13854.73047 0.038982
13855.45020 0.039336
13856.16016 0.039689
13856.87012 0.040043
13857.58008 0.040397
13858.29004 0.04075
13859.00000 0.041105
13859.70996 0.041458
13860.41992 0.041825
13861.12988 0.042201
13861.83984 0.042576
13862.54980 0.042952
13863.25977 0.043328
13863.96973 0.043704
13864.67969 0.04408
13865.38965 0.044469
13866.09961 0.044867
13866.80957 0.045266
13867.51953 0.045664
13868.24023 0.046063
13868.95020 0.046462
13869.66016 0.046861
13870.37012 0.047287
13871.08008 0.047739
13871.79004 0.048191
13872.50000 0.048643
13873.20996 0.049095
13873.91992 0.049547
13874.63965 0.05
13875.34961 0.050476
13876.05957 0.050976
13876.76953 0.051478
13877.48047 0.051978
13878.19043 0.05248
13878.90039 0.052981
13879.62012 0.053482
13880.33008 0.054013
13881.04004 0.054578
13881.75000 0.055144
13882.45996 0.055709
13883.16992 0.056275
13883.87988 0.056841
13884.59961 0.057407
13885.30957 0.057981
13886.01953 0.058565
13886.73047 0.059148
13887.44043 0.059732
13888.16016 0.060316
13888.87012 0.060901
13889.58008 0.061486
13890.29004 0.062065
13891.00000 0.062635
13891.71973 0.063206
13892.42969 0.063777
13893.13965 0.064349
13893.84961 0.06492
13894.55957 0.065491
13895.28027 0.066066
13895.99023 0.066645
13896.70020 0.067225
13897.41016 0.067804
13898.12988 0.068384
13898.83984 0.068963
13899.54980 0.069544
13900.25977 0.070118
13900.98047 0.070686
13901.69043 0.071253
13902.40039 0.071821
13903.11035 0.072387
13903.83008 0.072955
13904.54004 0.073523
13905.25000 0.074129
13905.96973 0.074802
13906.67969 0.075477
13907.38965 0.076151
13908.09961 0.076825
13908.82031 0.077499
13909.53027 0.078174
13910.24023 0.078878
13910.95996 0.079639
13911.66992 0.080399
13912.37988 0.08116
13913.09961 0.081921
13913.80957 0.082683
13914.51953 0.083444
13915.24023 0.084224
13915.95020 0.08504
13916.66016 0.085857
13917.37988 0.086674
13918.08984 0.087491
13918.79980 0.088308
13919.51953 0.089126
13920.23047 0.089922
13920.94043 0.090671
13921.66016 0.091422
13922.37012 0.092172
13923.08008 0.092923
13923.79980 0.093674
13924.50977 0.094424
13925.23047 0.095173
13925.94043 0.095915
13926.65039 0.096657
13927.37012 0.0974
13928.08008 0.098142
13928.79980 0.098885
13929.50977 0.099628
13930.21973 0.100361
13930.94043 0.101074
13931.65039 0.101787
13932.37012 0.102499
13933.08008 0.103213
13933.79004 0.103926
13934.50977 0.10464
13935.21973 0.105358
13935.94043 0.106086
13936.65039 0.106814
13937.37012 0.107542
13938.08008 0.10827
13938.79980 0.108999
13939.50977 0.109728
13940.21973 0.110453
13940.94043 0.111173
13941.65039 0.111893
13942.37012 0.112613
13943.08008 0.113332
13943.79980 0.114052
13944.50977 0.114773
13945.23047 0.115521
13945.94043 0.116328
13946.66016 0.117136
13947.37012 0.117943
13948.08984 0.118751
13948.79980 0.119559
13949.51953 0.120368
13950.23047 0.121157
13950.95020 0.121904
13951.66016 0.122652
13952.37988 0.123399
13953.08984 0.124147
13953.80957 0.124895
13954.51953 0.125643
13955.24023 0.12636
13955.95996 0.127012
13956.66992 0.127665
13957.38965 0.128318
13958.09961 0.12897
13958.82031 0.129624
13959.53027 0.130277
13960.25000 0.130919
13960.95996 0.13154
13961.67969 0.132161
13962.40039 0.132782
13963.11035 0.133404
13963.83008 0.134025
13964.54004 0.134647
13965.25977 0.135235
13965.96973 0.135764
13966.69043 0.136293
13967.41016 0.136823
13968.12012 0.137352
13968.83984 0.137881
13969.54980 0.138411
13970.26953 0.138915
13970.99023 0.139376
13971.70020 0.139838
13972.41992 0.140299
13973.13965 0.140761
13973.84961 0.141223
13974.57031 0.141684
13975.29004 0.142132
13976.00000 0.142557
13976.71973 0.142981
13977.42969 0.143406
13978.15039 0.143831
13978.87012 0.144257
13979.58008 0.144681
13980.29980 0.145068
13981.01953 0.145399
13981.73047 0.145731
13982.45020 0.146063
13983.16992 0.146394
13983.87988 0.146726
13984.59961 0.147058
13985.32031 0.147366
13986.04004 0.147642
13986.75000 0.14792
13987.46973 0.148197
13988.19043 0.148474
13988.90039 0.148751
13989.62012 0.149028
13990.33984 0.149285
13991.04980 0.149519
13991.76953 0.149753
13992.49023 0.149987
13993.20996 0.150222
13993.91992 0.150456
13994.63965 0.150691
13995.36035 0.150898
13996.08008 0.151079
13996.79004 0.15126
13997.50977 0.151442
13998.23047 0.151623
13998.95020 0.151804
13999.66016 0.151985
14000.37988 0.152136
14001.09961 0.15226
14001.82031 0.152384
14002.54004 0.152508
14003.25000 0.152633
14003.96973 0.152757
14004.69043 0.152881
14005.41016 0.152975
14006.12012 0.153043
14006.83984 0.153113
14007.55957 0.153181
14008.28027 0.153251
14009.00000 0.153319
14009.70996 0.153389
14010.42969 0.153431
14011.15039 0.153456
14011.87012 0.153481
14012.58984 0.153506
14013.30957 0.153531
14014.03027 0.153557
14014.74023 0.153582
14015.45996 0.153581
14016.17969 0.153566
14016.90039 0.153551
14017.62012 0.153536
14018.33984 0.153521
14019.04980 0.153506
14019.76953 0.153491
14020.49023 0.15346
14021.20996 0.153422
14021.92969 0.153384
14022.65039 0.153345
14023.37012 0.153307
14024.08984 0.153269
14024.79980 0.15323
14025.51953 0.153173
14026.24023 0.153108
14026.95996 0.153043
14027.67969 0.152979
14028.40039 0.152914
14029.12012 0.152849
14029.83984 0.152785
14030.55957 0.152699
14031.28027 0.152608
14032.00000 0.152516
14032.71973 0.152424
14033.44043 0.152333
14034.15039 0.152241
14034.87012 0.152149
14035.58984 0.152038
14036.30957 0.151923
14037.03027 0.151808
14037.75000 0.151693
14038.46973 0.151578
14039.19043 0.151462
14039.91016 0.151347
14040.62988 0.151224
14041.34961 0.151101
14042.07031 0.150977
14042.79004 0.150854
14043.50977 0.15073
14044.23047 0.150606
14044.95020 0.150482
14045.66992 0.150362
14046.38965 0.150242
14047.11035 0.150122
14047.83008 0.150001
14048.54980 0.149881
14049.26953 0.149761
14049.99023 0.14964
14050.70996 0.149525
14051.42969 0.149409
14052.15039 0.149294
14052.87012 0.149178
14053.58984 0.149062
14054.30957 0.148946
14055.03027 0.148831
14055.75000 0.148713
14056.46973 0.148595
14057.20020 0.148477
14057.91992 0.148359
14058.63965 0.148241
14059.36035 0.148123
14060.08008 0.148006
14060.79980 0.147896
14061.51953 0.147786
14062.24023 0.147677
14062.95996 0.147567
14063.67969 0.147457
14064.40039 0.147347
14065.12012 0.147238
14065.83984 0.147131
14066.57031 0.147025
14067.29004 0.146918
14068.00977 0.146812
14068.73047 0.146705
14069.45020 0.146599
14070.16992 0.146494
14070.88965 0.146398
14071.62012 0.1463
14072.33984 0.146203
14073.05957 0.146107
14073.78027 0.146009
14074.50000 0.145912
14075.21973 0.14582
14075.94043 0.145739
14076.66992 0.145657
14077.38965 0.145576
14078.11035 0.145494
14078.83008 0.145413
14079.54980 0.145331
14080.26953 0.145251
14081.00000 0.145173
14081.71973 0.145095
14082.44043 0.145017
14083.16016 0.14494
14083.87988 0.144862
14084.61035 0.144784
14085.33008 0.144712
14086.04980 0.144646
14086.76953 0.144581
14087.49023 0.144516
14088.21973 0.144451
14088.94043 0.144385
14089.66016 0.14432
14090.37988 0.144265
14091.09961 0.144221
14091.83008 0.144176
14092.54980 0.144131
14093.26953 0.144087
14093.99023 0.144042
14094.71973 0.143997
14095.44043 0.143959
14096.16016 0.143925
14096.87988 0.14389
14097.61035 0.143856
14098.33008 0.143821
14099.04980 0.143787
14099.78027 0.143753
14100.50000 0.143718
14101.21973 0.143684
14101.94043 0.14365
14102.66992 0.143616
14103.38965 0.143581
14104.11035 0.143547
14104.83984 0.143513
14105.55957 0.143502
14106.28027 0.143497
14107.00977 0.143493
14107.73047 0.143488
14108.45020 0.143484
14109.16992 0.14348
14109.90039 0.143475
14110.62012 0.143484
14111.33984 0.143494
14112.07031 0.143505
14112.79004 0.143515
14113.51953 0.143526
14114.24023 0.143536
14114.95996 0.143546
14115.69043 0.143561
14116.41016 0.143575
14117.12988 0.14359
14117.86035 0.143604
14118.58008 0.143619
14119.29980 0.143634
14120.03027 0.143649
14120.75000 0.143682
14121.48047 0.143714
14122.20020 0.143747
14122.91992 0.14378
14123.65039 0.143812
14124.37012 0.143845
14125.09961 0.143879
14125.82031 0.14392
14126.54004 0.143961
14127.26953 0.144002
14127.99023 0.144043
14128.71973 0.144085
14129.44043 0.144126
14130.16992 0.144172
14130.88965 0.144234
14131.61035 0.144296
14132.33984 0.144359
14133.05957 0.144421
14133.79004 0.144484
14134.50977 0.144546
14135.24023 0.144613
14135.95996 0.144687
14136.69043 0.144762
14137.41016 0.144837
14138.13965 0.144912
14138.86035 0.144987
14139.58008 0.145061
14140.30957 0.145141
14141.04004 0.145228
14141.75977 0.145314
14142.49023 0.1454
14143.20996 0.145487
14143.92969 0.145573
14144.66016 0.14566
14145.37988 0.145749
14146.11035 0.14584
14146.83984 0.145932
14147.55957 0.146023
14148.29004 0.146115
14149.00977 0.146206
14149.74023 0.146297
14150.45996 0.146396
14151.19043 0.146499
14151.91016 0.146602
14152.63965 0.146705
14153.36035 0.146807
14154.08984 0.14691
14154.82031 0.147013
14155.54004 0.147115
14156.26953 0.147216
14156.99023 0.147317
14157.71973 0.147419
14158.44043 0.14752
14159.16992 0.147621
14159.90039 0.147723
14160.62012 0.147845
14161.34961 0.14797
14162.07031 0.148096
14162.79980 0.148222
14163.53027 0.148348
14164.25000 0.148474
14164.98047 0.1486
14165.70020 0.148736
14166.42969 0.148872
14167.16016 0.149008
14167.87988 0.149144
14168.61035 0.14928
14169.33008 0.149417
14170.05957 0.149553
14170.79004 0.149685
14171.50977 0.149818
14172.24023 0.149951
14172.96973 0.150083
14173.69043 0.150216
14174.41992 0.150349
14175.15039 0.150484
14175.87012 0.150628
14176.59961 0.150773
14177.33008 0.150917
14178.04980 0.151061
14178.78027 0.151206
14179.50977 0.15135
14180.23047 0.151498
14180.95996 0.151652
14181.69043 0.151806
14182.41992 0.15196
14183.13965 0.152115
14183.87012 0.152269
14184.59961 0.152423
14185.32031 0.152578
14186.04980 0.152733
14186.78027 0.152889
14187.50977 0.153044
14188.23047 0.153199
14188.95996 0.153355
14189.69043 0.15351
14190.41992 0.153672
14191.13965 0.153838
14191.87012 0.154004
14192.59961 0.154171
14193.33008 0.154337
14194.04980 0.154503
14194.78027 0.15467
14195.50977 0.154836
14196.24023 0.155002
14196.95996 0.155168
14197.69043 0.155334
14198.41992 0.155501
14199.15039 0.155667
14199.87988 0.155833
14200.59961 0.156006
14201.33008 0.15618
14202.05957 0.156355
14202.79004 0.156529
14203.50977 0.156703
14204.24023 0.156878
14204.96973 0.157052
14205.70020 0.157207
14206.42969 0.157362
14207.16016 0.157516
14207.87988 0.15767
14208.61035 0.157825
14209.33984 0.157979
14210.07031 0.158135
14210.79980 0.158304
14211.53027 0.158473
14212.25000 0.158642
14212.98047 0.158811
14213.70996 0.15898
14214.44043 0.159149
14215.16992 0.159317
14215.90039 0.159484
14216.62988 0.15965
14217.36035 0.159817
14218.08008 0.159983
14218.80957 0.16015
14219.54004 0.160316
14220.26953 0.160487
14221.00000 0.160663
14221.73047 0.160839
14222.45996 0.161016
14223.19043 0.161193
14223.91992 0.161369
14224.65039 0.161546
14225.37988 0.161722
14226.09961 0.161898
14226.83008 0.162074
14227.55957 0.16225
14228.29004 0.162426
14229.01953 0.162602
14229.75000 0.162778
14230.48047 0.162945
14231.20996 0.163108
14231.94043 0.163271
14232.66992 0.163433
14233.40039 0.163596
14234.12988 0.163759
14234.86035 0.163922
14235.58984 0.164082
14236.32031 0.164241
14237.04980 0.1644
14237.78027 0.164558
14238.50977 0.164717
14239.24023 0.164877
14239.96973 0.165036
14240.70020 0.165193
14241.42969 0.165349
14242.16016 0.165506
14242.88965 0.165663
14243.62012 0.16582
14244.34961 0.165977
14245.08008 0.166134
14245.80957 0.166288
14246.54004 0.166443
14247.26953 0.166598
14248.00000 0.166752
14248.73047 0.166907
14249.45996 0.167062
14250.19043 0.167215
14250.91992 0.167363
14251.65039 0.167511
14252.37988 0.167659
14253.11035 0.167807
14253.83984 0.167956
14254.57031 0.168104
14255.29980 0.168252
14256.04004 0.168399
14256.76953 0.168545
14257.50000 0.168692
14258.23047 0.168839
14258.95996 0.168986
14259.69043 0.169133
14260.41992 0.169277
14261.15039 0.16942
14261.87988 0.169563
14262.61035 0.169705
14263.34961 0.169848
14264.08008 0.169991
14264.80957 0.170134
14265.54004 0.170268
14266.26953 0.170399
14267.00000 0.17053
14267.73047 0.170662
14268.45996 0.170793
14269.20020 0.170924
14269.92969 0.171056
14270.66016 0.171181
14271.38965 0.171305
14272.12012 0.17143
14272.84961 0.171555
14273.58984 0.171679
14274.32031 0.171804
14275.04980 0.171928
14275.78027 0.172049
14276.50977 0.172169
14277.25000 0.172289
14277.98047 0.17241
14278.70996 0.17253
14279.44043 0.17265
14280.16992 0.172769
14280.90039 0.172882
14281.63965 0.172995
14282.37012 0.173108
14283.09961 0.17322
14283.83008 0.173333
14284.57031 0.173446
14285.29980 0.173557
14286.03027 0.173664
14286.75977 0.173771
14287.50000 0.173879
14288.23047 0.173986
14288.95996 0.174094
14289.69043 0.174201
14290.41992 0.174304
14291.16016 0.174404
14291.88965 0.174504
14292.62012 0.174604
14293.36035 0.174705
14294.08984 0.174805
14294.82031 0.174905
14295.54980 0.174995
14296.29004 0.175081
14297.01953 0.175167
14297.75000 0.175253
14298.49023 0.175339
14299.21973 0.175426
14299.95020 0.175512
14300.67969 0.175595
14301.41992 0.175677
14302.15039 0.17576
14302.87988 0.175843
14303.62012 0.175925
14304.34961 0.176008
14305.08008 0.17609
14305.82031 0.176165
14306.54980 0.176239
14307.28027 0.176314
14308.01953 0.176388
14308.75000 0.176463
14309.48047 0.176538
14310.21973 0.176612
14310.95020 0.176684
14311.69043 0.176756
14312.41992 0.176828
14313.15039 0.176901
14313.88965 0.176973
14314.62012 0.177045
14315.34961 0.177112
14316.08984 0.177174
14316.82031 0.177235
14317.55957 0.177296
14318.29004 0.177358
14319.01953 0.177419
14319.75977 0.177481
14320.49023 0.177539
14321.23047 0.177596
14321.95996 0.177653
14322.69043 0.17771
14323.42969 0.177766
14324.16016 0.177823
14324.90039 0.17788
14325.62988 0.177932
14326.37012 0.177982
14327.09961 0.178033
14327.83008 0.178084
14328.57031 0.178134
14329.29980 0.178185
14330.04004 0.178235
14330.76953 0.178278
14331.50977 0.178321
14332.24023 0.178364
14332.98047 0.178406
14333.70996 0.178449
14334.45020 0.178492
14335.17969 0.178534
14335.91992 0.178573
14336.65039 0.178612
14337.38965 0.178651
14338.12012 0.178691
14338.86035 0.17873
14339.58984 0.178769
14340.33008 0.178806
14341.05957 0.178841
14341.79980 0.178875
14342.53027 0.178909
14343.26953 0.178943
14344.00000 0.178978
14344.74023 0.179012
14345.46973 0.179042
14346.20996 0.17907
14346.94043 0.179099
14347.67969 0.179127
14348.41992 0.179155
14349.15039 0.179183
14349.88965 0.179212
14350.62012 0.179237
14351.36035 0.179263
14352.08984 0.179288
14352.83008 0.179313
14353.55957 0.179339
14354.29980 0.179364
14355.04004 0.17939
14355.76953 0.179414
14356.50977 0.179439
14357.24023 0.179464
14357.98047 0.179488
14358.71973 0.179513
14359.45020 0.179538
14360.19043 0.179559
14360.91992 0.179567
14361.66016 0.179576
14362.40039 0.179585
14363.12988 0.179593
14363.87012 0.179602
14364.61035 0.179611
14365.33984 0.179625
14366.08008 0.179647
14366.82031 0.179668
14367.54980 0.179689
14368.29004 0.17971
14369.01953 0.179732
14369.75977 0.179753
14370.50000 0.179767
14371.23047 0.179777
14371.96973 0.179788
14372.70996 0.179798
14373.45020 0.179809
14374.17969 0.179819
14374.91992 0.179829
14375.66016 0.179838
14376.38965 0.179846
14377.12988 0.179854
14377.87012 0.179862
14378.59961 0.17987
14379.33984 0.179878
14380.08008 0.179885
14380.82031 0.179891
14381.54980 0.179896
14382.29004 0.179901
14383.03027 0.179907
14383.75977 0.179912
14384.50000 0.179918
14385.24023 0.179922
14385.98047 0.179927
14386.70996 0.179931
14387.45020 0.179935
14388.19043 0.179939
14388.92969 0.179943
14389.66016 0.179947
14390.40039 0.179948
14391.13965 0.179946
14391.87988 0.179944
14392.62012 0.179942
14393.34961 0.179941
14394.08984 0.179939
14394.83008 0.179937
14395.57031 0.179939
14396.29980 0.179942
14397.04004 0.179946
14397.78027 0.179949
14398.51953 0.179952
14399.25977 0.179955
14400.00000 0.179959
14400.73047 0.179964
14401.46973 0.17997
14402.20996 0.179975
14402.95020 0.179981
14403.69043 0.179986
14404.41992 0.179992
14405.16016 0.179995
14405.90039 0.179991
14406.63965 0.179988
14407.37988 0.179984
14408.12012 0.179981
14408.86035 0.179978
14409.58984 0.179974
14410.33008 0.179971
14411.07031 0.17997
14411.80957 0.179968
14412.54980 0.179967
14413.29004 0.179965
14414.03027 0.179964
14414.76953 0.179962
14415.50977 0.17996
14416.24023 0.179958
14416.98047 0.179956
14417.71973 0.179954
14418.45996 0.179952
14419.20020 0.17995
14419.94043 0.179948
14420.67969 0.179949
14421.41992 0.179951
14422.16016 0.179953
14422.90039 0.179955
14423.63965 0.179957
14424.37988 0.179959
14425.12012 0.179961
14425.84961 0.17996
14426.58984 0.17996
14427.33008 0.179959
14428.07031 0.179958
14428.80957 0.179958
14429.54980 0.179957
14430.29004 0.179956
14431.03027 0.179955
14431.76953 0.179954
14432.50977 0.179952
14433.25000 0.179951
14433.99023 0.17995
14434.73047 0.179949
14435.46973 0.17995
14436.20996 0.179951
14436.95020 0.179953
14437.69043 0.179954
14438.42969 0.179956
14439.16992 0.179957
14439.91016 0.179959
14440.65039 0.179961
14441.38965 0.179964
14442.12988 0.179967
14442.87012 0.179969
14443.61035 0.179972
14444.34961 0.179975
14445.08984 0.179978
14445.83008 0.179983
14446.58008 0.179988
14447.32031 0.179993
14448.05957 0.179999
14448.79980 0.180004
14449.54004 0.180009
14450.28027 0.18001
14451.01953 0.180005
14451.75977 0.18
14452.50000 0.179995
14453.24023 0.179989
14453.98047 0.179984
14454.71973 0.179979
14455.46973 0.179981
14456.20996 0.179987
14456.95020 0.179994
14457.69043 0.18
14458.42969 0.180007
14459.16992 0.180013
14459.91016 0.180019
14460.65039 0.180019
14461.38965 0.180018
14462.13965 0.180017
14462.87988 0.180016
14463.62012 0.180015
14464.36035 0.180014
14465.09961 0.180015
14465.83984 0.180023
14466.58008 0.180032
14467.33008 0.18004
14468.07031 0.180049
14468.80957 0.180057
14469.54980 0.180065
14470.29004 0.180071
14471.04004 0.180074
14471.78027 0.180077
14472.51953 0.180079
14473.25977 0.180082
14474.00000 0.180084
14474.75000 0.180087
14475.49023 0.180091
14476.23047 0.180097
14476.96973 0.180103
14477.70996 0.180108
14478.45996 0.180114
14479.20020 0.18012
14479.94043 0.180125
14480.67969 0.18013
14481.41992 0.180134
14482.16992 0.180138
14482.91016 0.180142
14483.65039 0.180147
14484.38965 0.180151
14485.13965 0.180155
14485.87988 0.180162
14486.62012 0.180169
14487.37012 0.180176
14488.11035 0.180182
14488.84961 0.180189
14489.58984 0.180196
14490.33984 0.180205
14491.08008 0.180218
14491.82031 0.18023
14492.55957 0.180242
14493.30957 0.180255
14494.04980 0.180267
14494.79004 0.18028
14495.54004 0.180286
14496.28027 0.180291
14497.01953 0.180295
14497.76953 0.1803
14498.50977 0.180305
14499.25000 0.180309
14500.00000 0.180314
14500.74023 0.180325
14501.48047 0.180336
14502.23047 0.180346
14502.96973 0.180357
14503.70996 0.180368
14504.45996 0.180379
14505.20020 0.18039
14505.94043 0.180401
14506.69043 0.180413
14507.42969 0.180424
14508.16992 0.180436
14508.91992 0.180447
14509.66016 0.180459
14510.41016 0.180472
14511.15039 0.180487
14511.88965 0.180502
14512.63965 0.180517
14513.37988 0.180531
14514.12012 0.180546
14514.87012 0.180561
14515.61035 0.180571
14516.36035 0.180581
14517.09961 0.180591
14517.84961 0.1806
14518.58984 0.18061
14519.33008 0.180619
14520.08008 0.180629
14520.82031 0.180643
14521.57031 0.180657
14522.30957 0.180671
14523.05957 0.180685
14523.79980 0.180699
14524.54980 0.180713
14525.29004 0.180729
14526.04004 0.180749
14526.78027 0.180769
14527.51953 0.180788
14528.26953 0.180808
14529.00977 0.180828
14529.75977 0.180848
14530.50000 0.180861
14531.25000 0.180871
14531.99023 0.180881
14532.74023 0.180891
14533.48047 0.180901
14534.23047 0.180912
14534.96973 0.180922
14535.71973 0.180938
14536.45996 0.180955
14537.20996 0.180971
14537.95020 0.180988
14538.70020 0.181005
14539.44043 0.181021
14540.19043 0.181039
14540.94043 0.181063
14541.67969 0.181087
14542.42969 0.181111
14543.16992 0.181134
14543.91992 0.181158
14544.66016 0.181181
14545.41016 0.181203
14546.15039 0.181225
14546.90039 0.181246
14547.65039 0.181266
14548.38965 0.181287
14549.13965 0.181309
14549.87988 0.18133
14550.62988 0.181348
14551.37988 0.181367
14552.12012 0.181386
14552.87012 0.181404
14553.61035 0.181423
14554.36035 0.181441
14555.09961 0.18146
14555.84961 0.181481
14556.59961 0.181501
14557.33984 0.181522
14558.08984 0.181542
14558.83984 0.181563
14559.58008 0.181583
14560.33008 0.181604
14561.08008 0.181626
14561.82031 0.181647
14562.57031 0.181668
14563.30957 0.18169
14564.05957 0.181711
14564.80957 0.181732
14565.54980 0.18176
14566.29980 0.181791
14567.04980 0.181821
14567.79004 0.181851
14568.54004 0.181882
14569.29004 0.181912
14570.04004 0.181942
14570.78027 0.181959
14571.53027 0.181977
14572.28027 0.181994
14573.01953 0.182011
14573.76953 0.182029
14574.51953 0.182046
14575.25977 0.182068
14576.00977 0.182096
14576.75977 0.182125
14577.50977 0.182153
14578.25000 0.182182
14579.00000 0.18221
14579.75000 0.182239
14580.50000 0.182262
14581.24023 0.182283
14581.99023 0.182304
14582.74023 0.182324
14583.49023 0.182345
14584.23047 0.182366
14584.98047 0.182386
14585.73047 0.182414
14586.48047 0.182443
14587.21973 0.182471
14587.96973 0.1825
14588.71973 0.182528
14589.46973 0.182556
14590.21973 0.182584
14590.95996 0.182612
14591.70996 0.18264
14592.45996 0.182667
14593.20996 0.182695
14593.95996 0.182723
14594.70020 0.18275
14595.45020 0.182776
14596.20020 0.182801
14596.95020 0.182825
14597.70020 0.182849
14598.45020 0.182874
14599.19043 0.182898
14599.94043 0.182923
14600.69043 0.182943
14601.44043 0.182962
14602.19043 0.182981
14602.94043 0.183001
14603.67969 0.18302
14604.42969 0.183039
14605.17969 0.18306
14605.92969 0.183087
14606.67969 0.183114
14607.42969 0.183141
14608.17969 0.183168
14608.92969 0.183195
14609.66992 0.183221
14610.41992 0.183251
14611.16992 0.183281
14611.91992 0.183312
14612.66992 0.183343
14613.41992 0.183373
14614.16992 0.183404
14614.91992 0.183435
14615.66992 0.183457
14616.41992 0.183479
14617.16992 0.183501
14617.91992 0.183522
14618.66992 0.183544
14619.41016 0.183565
14620.16016 0.183589
14620.91016 0.183619
14621.66016 0.183649
14622.41016 0.183679
14623.16016 0.183708
14623.91016 0.183738
14624.66016 0.183768
14625.41016 0.183797
14626.16016 0.183823
14626.91016 0.18385
14627.66016 0.183876
14628.41016 0.183903
14629.16016 0.18393
14629.91016 0.183956
14630.66016 0.183987
14631.41016 0.184017
14632.16016 0.184048
14632.91016 0.184079
14633.66016 0.184109
14634.41016 0.18414
14635.16016 0.184171
14635.91016 0.184207
14636.66016 0.184243
14637.41016 0.184278
14638.16016 0.184314
14638.91016 0.184349
14639.66016 0.184385
14640.41016 0.184417
14641.16016 0.184446
14641.91016 0.184475
14642.66992 0.184504
14643.41992 0.184533
14644.16992 0.184562
14644.91992 0.184591
14645.66992 0.184616
14646.41992 0.184641
14647.16992 0.184666
14647.91992 0.184691
14648.66992 0.184716
14649.41992 0.184741
14650.16992 0.184769
14650.91992 0.184806
14651.67969 0.184843
14652.42969 0.184879
14653.17969 0.184916
14653.92969 0.184953
14654.67969 0.18499
14655.42969 0.185021
14656.17969 0.185048
14656.92969 0.185075
14657.69043 0.185102
14658.44043 0.18513
14659.19043 0.185157
14659.94043 0.185184
14660.69043 0.185221
14661.44043 0.185259
14662.19043 0.185297
14662.95020 0.185335
14663.70020 0.185373
14664.45020 0.185411
14665.20020 0.185447
14665.95020 0.185481
14666.70996 0.185515
14667.45996 0.185549
14668.20996 0.185583
14668.95996 0.185616
14669.70996 0.18565
14670.45996 0.185683
14671.21973 0.185715
14671.96973 0.185747
14672.71973 0.185779
14673.46973 0.18581
14674.23047 0.185842
14674.98047 0.185874
14675.73047 0.185908
14676.48047 0.185941
14677.23047 0.185974
14677.99023 0.186007
14678.74023 0.186041
14679.49023 0.186074
14680.24023 0.186111
14681.00000 0.186154
14681.75000 0.186198
14682.50000 0.186242
14683.25000 0.186285
14684.00977 0.186329
14684.75977 0.186372
14685.50977 0.18641
14686.26953 0.186444
14687.01953 0.186478
14687.76953 0.186512
14688.51953 0.186547
14689.28027 0.186581
14690.03027 0.186615
14690.78027 0.186654
14691.54004 0.186693
14692.29004 0.186732
14693.04004 0.186771
14693.79980 0.18681
14694.54980 0.186848
14695.29980 0.186889
14696.05957 0.186932
14696.80957 0.186975
14697.55957 0.187018
14698.32031 0.187061
14699.07031 0.187105
14699.82031 0.187148
14700.58008 0.187188
14701.33008 0.187227
14702.08008 0.187266
14702.83984 0.187305
14703.58984 0.187344
14704.34961 0.187383
14705.09961 0.187423
14705.84961 0.187469
14706.61035 0.187515
14707.36035 0.187561
14708.12012 0.187607
14708.87012 0.187653
14709.62012 0.187699
14710.37988 0.187749
14711.12988 0.187803
14711.88965 0.187857
14712.63965 0.187911
14713.38965 0.187965
14714.15039 0.188019
14714.90039 0.188073
14715.66016 0.188114
14716.41016 0.188153
14717.16992 0.188193
14717.91992 0.188232
14718.66992 0.188271
14719.42969 0.188311
14720.17969 0.188353
14720.94043 0.188406
14721.69043 0.188459
14722.45020 0.188512
14723.20020 0.188564
14723.95996 0.188617
14724.70996 0.18867
14725.46973 0.188718
14726.21973 0.188763
14726.98047 0.188808
14727.73047 0.188853
14728.49023 0.188898
14729.24023 0.188943
14730.00000 0.188988
14730.75000 0.18903
14731.50977 0.189072
14732.25977 0.189115
14733.01953 0.189157
14733.76953 0.189199
14734.53027 0.189242
14735.28027 0.189285
14736.04004 0.189329
14736.79004 0.189373
14737.54980 0.189417
14738.30957 0.189461
14739.05957 0.189505
14739.82031 0.189549
14740.57031 0.189595
14741.33008 0.18964
14742.08008 0.189686
14742.83984 0.189731
14743.58984 0.189777
14744.34961 0.189822
14745.11035 0.189869
14745.86035 0.18992
14746.62012 0.18997
14747.37012 0.190022
14748.12988 0.190072
14748.88965 0.190123
14749.63965 0.190174
14750.40039 0.190219
14751.15039 0.190257
14751.91016 0.190296
14752.66992 0.190334
14753.41992 0.190373
14754.17969 0.190411
14754.94043 0.19045
14755.69043 0.190497
14756.45020 0.190546
14757.20996 0.190594
14757.95996 0.190643
14758.71973 0.190691
14759.48047 0.19074
14760.23047 0.190787
14760.99023 0.190832
14761.75000 0.190878
14762.50000 0.190923
14763.25977 0.190969
14764.01953 0.191014
14764.76953 0.191059
14765.53027 0.191106
14766.29004 0.191153
14767.04004 0.1912
14767.79980 0.191247
14768.55957 0.191294
14769.30957 0.191341
14770.07031 0.191388
14770.83008 0.191433
14771.58984 0.191477
14772.33984 0.191522
14773.09961 0.191567
14773.86035 0.191612
14774.62012 0.191657
14775.37012 0.191705
14776.12988 0.191757
14776.88965 0.191809
14777.63965 0.19186
14778.40039 0.191912
14779.16016 0.191964
14779.91992 0.192016
14780.67969 0.192055
14781.42969 0.192092
14782.19043 0.192129
14782.95020 0.192167
14783.70996 0.192204
14784.45996 0.192242
14785.21973 0.192282
14785.98047 0.192332
14786.74023 0.192381
14787.50000 0.192431
14788.25000 0.19248
14789.00977 0.192529
14789.76953 0.192579
14790.53027 0.192625
14791.29004 0.192669
14792.04004 0.192713
14792.79980 0.192757
14793.55957 0.192801
14794.32031 0.192845
14795.08008 0.192889
14795.83984 0.192935
14796.59961 0.19298
14797.34961 0.193026
14798.11035 0.193071
14798.87012 0.193117
14799.62988 0.193162
14800.38965 0.193199
14801.15039 0.193227
14801.91016 0.193256
14802.66992 0.193284
14803.41992 0.193312
14804.17969 0.193341
14804.94043 0.193369
14805.70020 0.193404
14806.45996 0.19344
14807.21973 0.193475
14807.98047 0.193511
14808.74023 0.193546
14809.50000 0.193582
14810.25000 0.19362
14811.00977 0.193663
14811.76953 0.193707
14812.53027 0.19375
14813.29004 0.193793
14814.04980 0.193836
14814.80957 0.19388
14815.57031 0.19391
14816.33008 0.193937
14817.08984 0.193964
14817.84961 0.19399
14818.61035 0.194017
14819.37012 0.194044
14820.12988 0.194071
14820.88965 0.194102
14821.65039 0.194132
14822.41016 0.194163
14823.16992 0.194194
14823.92969 0.194225
14824.69043 0.194255
14825.45020 0.194288
14826.20996 0.194323
14826.96973 0.194357
14827.73047 0.194392
14828.49023 0.194426
14829.25000 0.194461
14830.00977 0.194495
14830.76953 0.194528
14831.53027 0.19456
14832.29004 0.194592
14833.04980 0.194624
14833.80957 0.194657
14834.57031 0.194689
14835.33008 0.194719
14836.08984 0.194746
14836.84961 0.194774
14837.61035 0.194801
14838.37012 0.194828
14839.12988 0.194855
14839.88965 0.194882
14840.66016 0.19491
14841.41992 0.194938
14842.17969 0.194965
14842.94043 0.194993
14843.70020 0.19502
14844.45996 0.195048
14845.21973 0.195076
14845.98047 0.195104
14846.74023 0.195133
14847.50000 0.195162
14848.25977 0.195191
14849.03027 0.19522
14849.79004 0.195249
14850.54980 0.195278
14851.30957 0.195308
14852.07031 0.195338
14852.83008 0.195367
14853.58984 0.195397
14854.36035 0.195427
14855.12012 0.195455
14855.87988 0.195475
14856.63965 0.195495
14857.40039 0.195515
14858.16016 0.195534
14858.91992 0.195554
14859.69043 0.195574
14860.45020 0.195596
14861.20996 0.195618
14861.96973 0.19564
14862.73047 0.195662
14863.50000 0.195685
14864.25977 0.195707
14865.01953 0.195729
14865.78027 0.19575
14866.54004 0.195771
14867.30957 0.195791
14868.07031 0.195812
14868.83008 0.195832
14869.58984 0.195853
14870.34961 0.195875
14871.12012 0.195897
14871.87988 0.19592
14872.63965 0.195943
14873.40039 0.195966
14874.16992 0.195989
14874.92969 0.196011
14875.69043 0.196025
14876.45020 0.196037
14877.21973 0.196049
14877.98047 0.196061
14878.74023 0.196074
14879.50000 0.196086
14880.26953 0.196102
14881.03027 0.196124
14881.79004 0.196146
14882.55957 0.196168
14883.32031 0.19619
14884.08008 0.196212
14884.84961 0.196234
14885.61035 0.196247
14886.37012 0.196259
14887.12988 0.19627
14887.90039 0.196281
14888.66016 0.196293
14889.41992 0.196304
14890.19043 0.196316
14890.95020 0.196332
14891.70996 0.196347
14892.48047 0.196362
14893.24023 0.196378
14894.00000 0.196393
14894.76953 0.196408
14895.53027 0.196427
14896.29980 0.196447
14897.05957 0.196467
14897.82031 0.196488
14898.58984 0.196508
14899.34961 0.196528
14900.11035 0.196546
14900.87988 0.196553
14901.63965 0.196559
14902.41016 0.196566
14903.16992 0.196572
14903.92969 0.196579
14904.70020 0.196585
14905.45996 0.1966
14906.23047 0.19662
14906.99023 0.196639
14907.75000 0.196659
14908.51953 0.196679
14909.28027 0.196699
14910.04980 0.196718
14910.80957 0.196728
14911.58008 0.196738
14912.33984 0.196748
14913.09961 0.196758
14913.87012 0.196768
14914.62988 0.196778
14915.40039 0.196783
14916.16016 0.196785
14916.92969 0.196787
14917.69043 0.196788
14918.45996 0.19679
14919.21973 0.196792
14919.99023 0.196793
14920.75000 0.196804
14921.51953 0.196815
14922.28027 0.196825
14923.04980 0.196836
14923.80957 0.196847
14924.58008 0.196858
14925.33984 0.196865
14926.11035 0.196867
14926.87012 0.196869
14927.63965 0.196872
14928.40039 0.196874
14929.16992 0.196877
14929.92969 0.196879
14930.70020 0.196889
14931.45996 0.196901
14932.23047 0.196912
14932.99023 0.196923
14933.75977 0.196935
14934.53027 0.196946
14935.29004 0.196955
14936.05957 0.19696
14936.82031 0.196964
14937.58984 0.196969
14938.34961 0.196974
14939.12012 0.196979
14939.88965 0.196984
14940.65039 0.196993
14941.41992 0.197002
14942.17969 0.197012
14942.95020 0.197022
14943.71973 0.197032
14944.48047 0.197041
14945.25000 0.197045
14946.00977 0.197035
14946.78027 0.197026
14947.54980 0.197016
14948.30957 0.197006
14949.08008 0.196996
14949.83984 0.196987
14950.61035 0.196992
14951.37988 0.197002
14952.13965 0.197011
14952.91016 0.197021
14953.67969 0.19703
14954.44043 0.19704
14955.20996 0.197046
14955.98047 0.197047
14956.74023 0.197047
14957.50977 0.197047
14958.28027 0.197047
14959.04004 0.197047
14959.80957 0.197047
14960.58008 0.197045
14961.33984 0.197043
14962.11035 0.197041
14962.87988 0.197039
14963.65039 0.197037
14964.41016 0.197035
14965.17969 0.197034
14965.95020 0.197038
14966.70996 0.197042
14967.48047 0.197046
14968.25000 0.197049
14969.01953 0.197053
14969.78027 0.197057
14970.54980 0.197057
14971.32031 0.197056
14972.08984 0.197055
14972.84961 0.197054
14973.62012 0.197053
14974.38965 0.197052
14975.16016 0.197052
14975.91992 0.197054
14976.69043 0.197056
14977.45996 0.197059
14978.23047 0.197061
14979.00000 0.197064
14979.75977 0.197066
14980.53027 0.197065
14981.29980 0.197063
14982.07031 0.19706
14982.83984 0.197058
14983.59961 0.197056
14984.37012 0.197054
14985.13965 0.197053
14985.91016 0.19706
14986.67969 0.197067
14987.44043 0.197074
14988.20996 0.197081
14988.98047 0.197088
14989.75000 0.197095
14990.51953 0.197095
14991.29004 0.197092
14992.04980 0.197089
14992.82031 0.197086
14993.58984 0.197082
14994.36035 0.197079
14995.12988 0.197077
14995.90039 0.197078
14996.66992 0.197079
14997.44043 0.19708
14998.20020 0.197081
14998.96973 0.197082
14999.74023 0.197083
15000.50977 0.197075
15001.28027 0.197062
15002.04980 0.197049
15002.82031 0.197036
15003.58984 0.197023
15004.36035 0.197011
15005.12988 0.196998
15005.90039 0.196988
15006.66016 0.196977
15007.42969 0.196966
15008.20020 0.196956
15008.96973 0.196945
15009.74023 0.196934
15010.50977 0.19692
15011.28027 0.196903
15012.04980 0.196887
15012.82031 0.19687
15013.58984 0.196854
15014.36035 0.196837
15015.12988 0.196821
15015.90039 0.196807
15016.66992 0.196792
15017.44043 0.196777
15018.20996 0.196763
15018.98047 0.196748
15019.75000 0.196733
15020.51953 0.196722
15021.29004 0.196713
15022.05957 0.196704
15022.83008 0.196695
15023.59961 0.196686
15024.37012 0.196677
15025.13965 0.196668
15025.91016 0.196658
15026.67969 0.196649
15027.45020 0.196639
15028.21973 0.19663
15028.99023 0.19662
15029.75977 0.19661
15030.53027 0.196603
15031.29980 0.196596
15032.07031 0.196589
15032.83984 0.196582
15033.61035 0.196575
15034.37988 0.196568
15035.16016 0.196559
15035.92969 0.196542
15036.70020 0.196525
15037.46973 0.196508
15038.24023 0.196491
15039.00977 0.196474
15039.78027 0.196458
15040.54980 0.196446
15041.32031 0.196437
15042.08984 0.196427
15042.86035 0.196418
15043.63965 0.196408
15044.41016 0.196399
15045.17969 0.19639
15045.95020 0.196385
15046.71973 0.196381
15047.49023 0.196376
15048.25977 0.196371
15049.03027 0.196366
15049.80957 0.196361
15050.58008 0.196345
15051.34961 0.196326
15052.12012 0.196307
15052.88965 0.196289
15053.66016 0.19627
15054.44043 0.196251
15055.20996 0.196235
15055.98047 0.196228
15056.75000 0.19622
15057.51953 0.196213
15058.29004 0.196206
15059.07031 0.196199
15059.83984 0.196191
15060.61035 0.196189
15061.37988 0.196188
15062.16016 0.196187
15062.92969 0.196186
15063.70020 0.196185
15064.46973 0.196183
15065.24023 0.196179
15066.01953 0.196166
15066.79004 0.196153
15067.55957 0.19614
15068.33008 0.196127
15069.11035 0.196115
15069.87988 0.196102
15070.65039 0.196095
15071.41992 0.196089
15072.20020 0.196083
15072.96973 0.196077
15073.74023 0.196071
15074.50977 0.196065
15075.29004 0.196059
15076.05957 0.196055
15076.83008 0.196051
15077.61035 0.196047
15078.37988 0.196043
15079.15039 0.196039
15079.91992 0.196035
15080.70020 0.196026
15081.46973 0.196016
15082.24023 0.196006
15083.01953 0.195996
15083.79004 0.195987
15084.55957 0.195977
15085.33984 0.19597
15086.11035 0.195967
15086.87988 0.195965
15087.66016 0.195962
15088.42969 0.19596
15089.20020 0.195957
15089.98047 0.195954
15090.75000 0.195955
15091.51953 0.195956
15092.29980 0.195957
15093.07031 0.195958
15093.84961 0.195959
15094.62012 0.19596
15095.38965 0.195958
15096.16992 0.195951
15096.94043 0.195945
15097.70996 0.195939
15098.49023 0.195933
15099.25977 0.195927
15100.04004 0.195921
15100.80957 0.195923
15101.58008 0.195926
15102.36035 0.195928
15103.12988 0.19593
15103.91016 0.195932
15104.67969 0.195934
15105.45996 0.195935
15106.23047 0.195936
15107.00000 0.195937
15107.78027 0.195937
15108.54980 0.195938
15109.33008 0.195939
15110.09961 0.195939
15110.87988 0.195941
15111.65039 0.195942
15112.42969 0.195943
15113.20020 0.195944
15113.98047 0.195946
15114.75000 0.195947
15115.53027 0.195948
15116.29980 0.195949
15117.08008 0.195949
15117.84961 0.19595
15118.62988 0.195951
15119.40039 0.195952
15120.17969 0.195955
15120.95020 0.195964
15121.73047 0.195973
15122.50000 0.195983
15123.28027 0.195992
15124.04980 0.196001
15124.83008 0.196011
15125.59961 0.196013
15126.37988 0.196014
15127.15039 0.196015
15127.92969 0.196015
15128.70020 0.196016
15129.48047 0.196017
15130.25977 0.196019
15131.03027 0.196024
15131.80957 0.19603
15132.58008 0.196036
15133.36035 0.196042
15134.12988 0.196047
15134.91016 0.196053
15135.69043 0.196057
15136.45996 0.19606
15137.24023 0.196064
15138.00977 0.196067
15138.79004 0.196071
15139.57031 0.196074
15140.33984 0.196078
15141.12012 0.196083
15141.88965 0.196088
15142.66992 0.196094
15143.45020 0.196099
15144.21973 0.196104
15145.00000 0.196109
15145.78027 0.19612
15146.54980 0.19613
15147.33008 0.196141
15148.11035 0.196151
15148.87988 0.196162
15149.66016 0.196173
15150.44043 0.196176
15151.20996 0.196173
15151.99023 0.196171
15152.76953 0.196168
15153.54004 0.196165
15154.32031 0.196163
15155.09961 0.196162
15155.87012 0.196175
15156.65039 0.196188
15157.42969 0.196202
15158.20020 0.196215
15158.98047 0.196228
15159.75977 0.196242
15160.54004 0.196246
15161.30957 0.196247
15162.08984 0.196249
15162.87012 0.19625
15163.63965 0.196251
15164.41992 0.196252
15165.20020 0.196254
15165.98047 0.196259
15166.75000 0.196265
15167.53027 0.19627
15168.30957 0.196275
15169.08984 0.19628
15169.86035 0.196286
15170.63965 0.196297
15171.41992 0.19631
15172.20020 0.196323
15172.96973 0.196336
15173.75000 0.196349
15174.53027 0.196361
15175.30957 0.196372
15176.08984 0.196377
15176.86035 0.196382
15177.63965 0.196388
15178.41992 0.196393
15179.20020 0.196399
15179.98047 0.196405
15180.75000 0.196416
15181.53027 0.196429
15182.30957 0.196441
15183.08984 0.196453
15183.87012 0.196466
15184.65039 0.196478
15185.41992 0.19649
15186.20020 0.196501
15186.98047 0.196513
15187.75977 0.196525
15188.54004 0.196537
15189.32031 0.196548
15190.09961 0.196559
15190.87012 0.196566
15191.65039 0.196572
15192.42969 0.196579
15193.20996 0.196585
15193.99023 0.196592
15194.76953 0.196598
15195.54980 0.196608
15196.33008 0.19662
15197.11035 0.196631
15197.87988 0.196642
15198.66016 0.196654
15199.44043 0.196665
15200.21973 0.196676
15201.00000 0.196687
15201.78027 0.196697
15202.55957 0.196707
15203.33984 0.196717
15204.12012 0.196728
15204.90039 0.196738
15205.67969 0.196753
15206.45996 0.196769
15207.24023 0.196785
15208.01953 0.196801
15208.79980 0.196817
15209.58008 0.196833
15210.36035 0.196845
15211.13965 0.196852
15211.91992 0.196859
15212.70020 0.196866
15213.46973 0.196873
15214.25000 0.19688
15215.04004 0.196887
15215.80957 0.19691
15216.58984 0.196933
15217.37012 0.196955
15218.16016 0.196978
15218.94043 0.197
15219.70996 0.197023
15220.50000 0.197037
15221.28027 0.197047
15222.05957 0.197057
15222.83984 0.197068
15223.62012 0.197078
15224.40039 0.197088
15225.17969 0.197098
15225.95996 0.197109
15226.74023 0.197121
15227.51953 0.197132
15228.29980 0.197143
15229.08008 0.197155
15229.86035 0.197166
15230.63965 0.197175
15231.41992 0.197183
15232.20020 0.197191
15232.98047 0.197198
15233.76953 0.197207
15234.54980 0.197214
15235.33008 0.197225
15236.11035 0.197238
15236.88965 0.197251
15237.66992 0.197265
15238.45020 0.197278
15239.23047 0.197291
15240.00977 0.197305
15240.79004 0.197322
15241.58008 0.197339
15242.36035 0.197356
15243.13965 0.197373
15243.91992 0.197389
15244.70020 0.197406
15245.48047 0.197417
15246.26953 0.197425
15247.04980 0.197433
15247.83008 0.19744
15248.61035 0.197448
15249.38965 0.197456
15250.16992 0.197463
15250.95996 0.197469
15251.74023 0.197474
15252.51953 0.19748
15253.29980 0.197486
15254.08008 0.197491
15254.87012 0.197497
15255.65039 0.197511
15256.42969 0.197526
15257.20996 0.197541
15257.99023 0.197556
15258.78027 0.197572
15259.55957 0.197587
15260.33984 0.197601
15261.12012 0.197612
15261.90039 0.197624
15262.69043 0.197636
15263.46973 0.197648
15264.25000 0.19766
15265.03027 0.197672
15265.82031 0.197686
15266.59961 0.1977
15267.37988 0.197714
15268.16992 0.197729
15268.95020 0.197743
15269.73047 0.197757
15270.50977 0.197767
15271.29980 0.197776
15272.08008 0.197784
15272.86035 0.197793
15273.63965 0.197801
15274.42969 0.19781
15275.20996 0.19782
15275.99023 0.197834
15276.78027 0.197849
15277.55957 0.197864
15278.33984 0.197879
15279.12988 0.197893
15279.91016 0.197908
15280.69043 0.197906
15281.48047 0.197901
15282.25977 0.197897
15283.04004 0.197892
15283.83008 0.197888
15284.61035 0.197883
15285.38965 0.197886
15286.17969 0.197896
15286.95996 0.197906
15287.75000 0.197916
15288.53027 0.197926
15289.30957 0.197936
15290.09961 0.197945
15290.87988 0.197952
15291.66016 0.197959
15292.45020 0.197965
15293.23047 0.197972
15294.01953 0.197978
15294.79980 0.197985
15295.58008 0.198
15296.37012 0.198018
15297.15039 0.198036
15297.94043 0.198053
15298.71973 0.198071
15299.50000 0.198089
15300.29004 0.198096
15301.07031 0.198083
15301.86035 0.198071
15302.63965 0.198058
15303.42969 0.198046
15304.20996 0.198034
15305.00000 0.198021
15305.78027 0.198025
15306.55957 0.198028
15307.34961 0.198032
15308.12988 0.198036
15308.91992 0.19804
15309.70020 0.198044
15310.49023 0.198036
15311.26953 0.198023
15312.05957 0.198009
15312.83984 0.197995
15313.62988 0.197982
15314.41016 0.197968
15315.20020 0.197959
15315.98047 0.197962
15316.76953 0.197966
15317.54980 0.197969
15318.33984 0.197972
15319.12988 0.197976
15319.91016 0.197979
15320.70020 0.19797
15321.48047 0.197958
15322.26953 0.197947
15323.04980 0.197936
15323.83984 0.197925
15324.62012 0.197913
15325.41016 0.197905
15326.19043 0.197901
15326.98047 0.197896
15327.76953 0.197891
15328.54980 0.197887
15329.33984 0.197882
15330.12012 0.197878
15330.91016 0.197876
15331.69043 0.197874
15332.48047 0.197872
15333.26953 0.19787
15334.04980 0.197868
15334.83984 0.197866
15335.62988 0.197865
15336.41016 0.197864
15337.20020 0.197863
15337.98047 0.197863
15338.76953 0.197862
15339.55957 0.197861
15340.33984 0.197856
15341.12988 0.197844
15341.91992 0.197833
15342.70020 0.197822
15343.49023 0.19781
15344.26953 0.197799
15345.05957 0.197787
15345.84961 0.197771
15346.62988 0.197755
15347.41992 0.19774
15348.20996 0.197723
15349.00000 0.197708
15349.78027 0.197692
15350.57031 0.197687
15351.36035 0.197687
15352.13965 0.197687
15352.92969 0.197687
15353.71973 0.197686
15354.50000 0.197686
15355.29004 0.197681
15356.08008 0.197665
15356.87012 0.197651
15357.65039 0.197635
15358.44043 0.19762
15359.23047 0.197605
15360.00977 0.197591
15360.79980 0.197592
15361.58984 0.197594
15362.37988 0.197596
15363.16016 0.197598
15363.95020 0.1976
15364.74023 0.197602
15365.53027 0.197589
15366.32031 0.197569
15367.09961 0.197549
15367.88965 0.197529
15368.67969 0.197509
15369.46973 0.197489
15370.25000 0.197472
15371.04004 0.197459
15371.83008 0.197446
15372.62012 0.197433
15373.41016 0.19742
15374.19043 0.197408
15374.98047 0.197395
15375.76953 0.197394
15376.55957 0.197393
15377.34961 0.197392
15378.13965 0.197391
15378.91992 0.19739
15379.70996 0.197389
15380.50000 0.197383
15381.29004 0.197374
15382.08008 0.197365
15382.87012 0.197356
15383.65039 0.197347
15384.44043 0.197338
15385.23047 0.197328
15386.01953 0.197314
15386.80957 0.1973
15387.59961 0.197286
15388.38965 0.197272
15389.17969 0.197258
15389.95996 0.197244
15390.75000 0.197247
15391.54004 0.19725
15392.33008 0.197253
15393.12012 0.197257
15393.91016 0.19726
15394.70020 0.197263
15395.49023 0.197255
15396.28027 0.197241
15397.07031 0.197227
15397.86035 0.197213
15398.65039 0.197199
15399.42969 0.197185
15400.21973 0.197175
15401.00977 0.197177
15401.79980 0.197179
15402.58984 0.197181
15403.37988 0.197182
15404.16992 0.197184
15404.95996 0.197186
15405.75000 0.197185
15406.54004 0.197183
15407.33008 0.197182
15408.12012 0.19718
15408.91016 0.197179
15409.70020 0.197177
15410.49023 0.197185
15411.28027 0.197198
15412.07031 0.197211
15412.86035 0.197224
15413.65039 0.197238
15414.44043 0.197251
15415.23047 0.197256
15416.01953 0.197242
15416.80957 0.197229
15417.59961 0.197215
15418.38965 0.197201
15419.17969 0.197188
15419.96973 0.197174
15420.75977 0.197184
15421.54980 0.197195
15422.33984 0.197206
15423.13965 0.197217
15423.92969 0.197228
15424.71973 0.197239
15425.50977 0.197242
15426.29980 0.19724
15427.08984 0.197239
15427.87988 0.197237
15428.66992 0.197236
15429.45996 0.197234
15430.25000 0.197234
15431.04004 0.197239
15431.83008 0.197243
15432.62988 0.197247
15433.41992 0.197252
15434.20996 0.197256
15435.00000 0.197261
15435.79004 0.197267
15436.58008 0.197274
15437.37012 0.19728
15438.16992 0.197287
15438.95996 0.197294
15439.75000 0.1973
15440.54004 0.1973
15441.33008 0.197297
15442.12012 0.197294
15442.91016 0.19729
15443.70996 0.197287
15444.50000 0.197284
15445.29004 0.197284
15446.08008 0.197292
15446.87012 0.1973
15447.66992 0.197307
15448.45996 0.197315
15449.25000 0.197323
15450.04004 0.19733
15450.83008 0.197333
15451.62012 0.197336
15452.41992 0.197339
15453.20996 0.197341
15454.00000 0.197344
15454.79004 0.197347
15455.58984 0.197356
15456.37988 0.197368
15457.16992 0.197379
15457.95996 0.197391
15458.75000 0.197403
15459.54980 0.197414
15460.33984 0.197421
15461.12988 0.197422
15461.92969 0.197423
15462.71973 0.197424
15463.50977 0.197425
15464.29980 0.197426
15465.09961 0.197428
15465.88965 0.197436
15466.67969 0.197444
15467.46973 0.197452
15468.26953 0.19746
15469.05957 0.197469
15469.84961 0.197477
15470.65039 0.197487
15471.44043 0.197498
15472.23047 0.197509
15473.03027 0.197519
15473.82031 0.19753
15474.61035 0.197541
15475.41016 0.197548
15476.20020 0.197553
15476.99023 0.197558
15477.79004 0.197562
15478.58008 0.197567
15479.37012 0.197572
15480.16992 0.197577
15480.95996 0.197588
15481.75000 0.197599
15482.54980 0.197609
15483.33984 0.197619
15484.12988 0.19763
15484.92969 0.19764
15485.71973 0.197656
15486.51953 0.197672
15487.30957 0.197688
15488.09961 0.197704
15488.90039 0.19772
15489.69043 0.197736
15490.49023 0.197745
15491.28027 0.197749
15492.07031 0.197754
15492.87012 0.197758
15493.66016 0.197763
15494.45996 0.197768
15495.25000 0.197774
15496.04980 0.197787
15496.83984 0.1978
15497.62988 0.197813
15498.42969 0.197826
15499.21973 0.197838
15500.01953 0.197851
15500.80957 0.197856
15501.61035 0.197861
15502.40039 0.197866
15503.20020 0.197871
15503.99023 0.197876
15504.79004 0.197881
15505.58008 0.197879
15506.37988 0.197876
15507.16992 0.197872
15507.96973 0.197868
15508.75977 0.197865
15509.55957 0.197861
15510.34961 0.197859
15511.15039 0.197859
15511.94043 0.19786
15512.74023 0.19786
15513.53027 0.19786
15514.33008 0.197861
15515.12012 0.19786
15515.91992 0.197858
15516.70996 0.197855
15517.50977 0.197852
15518.29980 0.19785
15519.09961 0.197847
15519.90039 0.197844
15520.69043 0.197851
15521.49023 0.19786
15522.28027 0.197869
15523.08008 0.197878
15523.87012 0.197886
15524.66992 0.197895
15525.45996 0.197909
15526.25977 0.197927
15527.05957 0.197944
15527.84961 0.197962
15528.65039 0.19798
15529.45020 0.197997
15530.24023 0.19801
15531.04004 0.19801
15531.83008 0.19801
15532.62988 0.198011
15533.42969 0.198011
15534.21973 0.198012
15535.01953 0.198012
15535.82031 0.198023
15536.61035 0.198034
15537.41016 0.198044
15538.20020 0.198055
15539.00000 0.198066
15539.79980 0.198077
15540.58984 0.198087
15541.38965 0.198097
15542.19043 0.198107
15542.98047 0.198117
15543.78027 0.198127
15544.58008 0.198137
15545.37988 0.198147
15546.16992 0.198157
15546.96973 0.198166
15547.76953 0.198176
15548.55957 0.198186
15549.36035 0.198195
15550.16016 0.198205
15550.95020 0.198214
15551.75000 0.198224
15552.54980 0.198233
15553.34961 0.198242
15554.13965 0.198251
15554.94043 0.198261
15555.74023 0.198276
15556.54004 0.198293
15557.33008 0.198309
15558.12988 0.198325
15558.92969 0.198342
15559.73047 0.198358
15560.51953 0.198373
15561.32031 0.198386
15562.12012 0.1984
15562.91992 0.198413
15563.70996 0.198426
15564.50977 0.19844
15565.30957 0.198456
15566.11035 0.198478
15566.91016 0.1985
15567.70020 0.198521
15568.50000 0.198543
15569.29980 0.198565
15570.09961 0.198585
15570.90039 0.198597
15571.70020 0.198608
15572.49023 0.19862
15573.29004 0.198632
15574.08984 0.198643
15574.88965 0.198655
15575.69043 0.198673
15576.49023 0.198691
15577.28027 0.19871
15578.08008 0.198729
15578.87988 0.198748
15579.67969 0.198767
15580.48047 0.198789
15581.28027 0.198813
15582.08008 0.198836
15582.87012 0.19886
15583.66992 0.198884
15584.46973 0.198908
15585.26953 0.198931
15586.07031 0.198951
15586.87012 0.198971
15587.66992 0.198992
15588.46973 0.199012
15589.26953 0.199033
15590.07031 0.199053
15590.86035 0.199073
15591.66016 0.199093
15592.45996 0.199113
15593.25977 0.199133
15594.05957 0.199153
15594.86035 0.199172
15595.66016 0.199193
15596.45996 0.199213
15597.25977 0.199233
15598.05957 0.199253
15598.86035 0.199273
15599.66016 0.199293
15600.45996 0.199322
15601.25977 0.199358
15602.05957 0.199394
15602.86035 0.199429
15603.66016 0.199465
15604.45996 0.1995
15605.25977 0.199537
15606.05957 0.199574
15606.86035 0.199612
15607.66016 0.199649
15608.45996 0.199687
15609.25977 0.199724
15610.05957 0.199761
15610.86035 0.199795
15611.66016 0.199829
15612.45996 0.199863
15613.25977 0.199898
15614.05957 0.199932
15614.86035 0.199966
15615.66016 0.199993
15616.45996 0.200019
15617.25977 0.200046
15618.05957 0.200072
15618.86035 0.200098
15619.66016 0.200124
15620.45996 0.20016
15621.25977 0.200204
15622.07031 0.200247
15622.87012 0.200291
15623.66992 0.200335
15624.46973 0.200378
15625.26953 0.200417
15626.07031 0.200446
15626.87012 0.200476
15627.66992 0.200505
15628.46973 0.200534
15629.28027 0.200564
15630.08008 0.200594
15630.87988 0.200639
15631.67969 0.200684
15632.48047 0.200729
15633.28027 0.200773
15634.08008 0.200818
15634.87988 0.200863
15635.69043 0.200898
15636.49023 0.200932
15637.29004 0.200966
15638.08984 0.201
15638.88965 0.201034
15639.69043 0.201068
15640.50000 0.201103
15641.29980 0.201139
15642.09961 0.201176
15642.90039 0.201212
15643.70020 0.201248
15644.50000 0.201284
15645.30957 0.201323
15646.11035 0.201365
15646.91016 0.201407
15647.70996 0.201449
15648.51953 0.201491
15649.32031 0.201533
15650.12012 0.201575
15650.91992 0.201615
15651.71973 0.201656
15652.53027 0.201696
15653.33008 0.201737
15654.12988 0.201777
15654.92969 0.201817
15655.74023 0.201859
15656.54004 0.2019
15657.33984 0.201942
15658.13965 0.201984
15658.95020 0.202025
15659.75000 0.202067
15660.54980 0.202104
15661.36035 0.20214
15662.16016 0.202176
15662.95996 0.202212
15663.75977 0.202248
15664.57031 0.202284
15665.37012 0.202328
15666.16992 0.202381
15666.98047 0.202434
15667.78027 0.202487
15668.58008 0.20254
15669.38965 0.202593
15670.19043 0.202642
15670.99023 0.202678
15671.79980 0.202715
15672.59961 0.202751
15673.40039 0.202788
15674.20996 0.202824
15675.00977 0.202861
15675.80957 0.202909
15676.62012 0.202956
15677.41992 0.203004
15678.21973 0.203052
15679.03027 0.203099
15679.83008 0.203147
15680.63965 0.203196
15681.44043 0.203246
15682.24023 0.203296
15683.04980 0.203346
15683.84961 0.203396
15684.66016 0.203446
15685.45996 0.203496
15686.25977 0.203547
15687.07031 0.203598
15687.87012 0.203649
15688.67969 0.2037
15689.48047 0.203751
15690.29004 0.203792
15691.08984 0.203816
15691.88965 0.203839
15692.70020 0.203862
15693.50000 0.203885
15694.30957 0.203909
15695.11035 0.203935
15695.91992 0.203979
15696.71973 0.204023
15697.53027 0.204068
15698.33008 0.204112
15699.12988 0.204156
15699.94043 0.204201
15700.74023 0.204241
15701.54980 0.204282
15702.34961 0.204322
15703.16016 0.204363
15703.95996 0.204403
15704.76953 0.204443
15705.57031 0.204493
15706.37988 0.204546
15707.17969 0.204599
15707.99023 0.204652
15708.79004 0.204705
15709.59961 0.204758
15710.41016 0.204805
15711.20996 0.204844
15712.01953 0.204883
15712.82031 0.204923
15713.62988 0.204962
15714.42969 0.205001
15715.24023 0.205041
15716.04004 0.205081
15716.84961 0.205121
15717.66016 0.20516
15718.45996 0.2052
15719.26953 0.20524
15720.07031 0.205279
15720.87988 0.205308
15721.67969 0.205336
15722.49023 0.205365
15723.29980 0.205394
15724.09961 0.205423
15724.91016 0.205451
15725.70996 0.205493
15726.51953 0.205536
15727.33008 0.205579
15728.12988 0.205622
15728.94043 0.205666
15729.75000 0.205709
15730.54980 0.205742
15731.36035 0.20577
15732.16992 0.205798
15732.96973 0.205826
15733.78027 0.205855
15734.58008 0.205883
15735.38965 0.205919
15736.20020 0.205962
15737.00000 0.206006
15737.80957 0.206049
15738.62012 0.206093
15739.42969 0.206137
15740.23047 0.20618
15741.04004 0.206223
15741.84961 0.206266
15742.65039 0.206309
15743.45996 0.206352
15744.26953 0.206395
15745.07031 0.206437
15745.87988 0.206469
15746.69043 0.206501
15747.50000 0.206532
15748.29980 0.206564
15749.11035 0.206596
15749.91992 0.206627
15750.73047 0.206663
15751.53027 0.206699
15752.33984 0.206736
15753.15039 0.206772
15753.95996 0.206808
15754.75977 0.206845
15755.57031 0.206878
15756.37988 0.206909
15757.19043 0.206941
15757.99023 0.206972
15758.79980 0.207004
15759.61035 0.207035
15760.41992 0.20707
15761.23047 0.207108
15762.03027 0.207146
15762.83984 0.207184
15763.65039 0.207222
15764.45996 0.20726
15765.26953 0.207293
15766.07031 0.207317
15766.87988 0.207341
15767.69043 0.207365
15768.50000 0.207389
15769.30957 0.207413
15770.12012 0.207439
15770.91992 0.207472
15771.73047 0.207506
15772.54004 0.20754
15773.34961 0.207573
15774.16016 0.207607
15774.96973 0.207641
15775.78027 0.207672
15776.58008 0.207703
15777.38965 0.207734
15778.20020 0.207765
15779.00977 0.207796
15779.82031 0.207826
15780.62988 0.20785
15781.44043 0.207871
15782.25000 0.207892
15783.05957 0.207913
15783.87012 0.207934
15784.66992 0.207955
15785.48047 0.207978
15786.29004 0.208004
15787.09961 0.208029
15787.91016 0.208054
15788.71973 0.208079
15789.53027 0.208104
15790.33984 0.208131
15791.15039 0.208161
15791.95996 0.208191
15792.76953 0.208221
15793.58008 0.208251
15794.38965 0.20828
15795.20020 0.208308
15796.00977 0.208329
15796.82031 0.20835
15797.62988 0.208371
15798.44043 0.208393
15799.25000 0.208414
15800.05957 0.208434
15800.87012 0.208444
15801.67969 0.208453
15802.49023 0.208463
15803.29980 0.208472
15804.11035 0.208482
15804.91992 0.208491
15805.73047 0.208505
15806.54004 0.20852
15807.34961 0.208534
15808.16016 0.208549
15808.96973 0.208563
15809.78027 0.208578
15810.58984 0.208586
15811.40039 0.208591
15812.20996 0.208596
15813.01953 0.208601
15813.83008 0.208606
15814.63965 0.208611
15815.45020 0.208617
15816.25977 0.208623
15817.07031 0.208629
15817.87988 0.208634
15818.70020 0.20864
15819.50977 0.208646
15820.32031 0.208651
15821.12988 0.208656
15821.94043 0.20866
15822.75000 0.208664
15823.55957 0.208669
15824.37012 0.208673
15825.17969 0.208677
15826.00000 0.208679
15826.80957 0.20868
15827.62012 0.208682
15828.42969 0.208684
15829.24023 0.208686
15830.04980 0.208688
15830.86035 0.208689
15831.67969 0.20869
15832.49023 0.208691
15833.29980 0.208692
15834.11035 0.208693
15834.91992 0.208694
15835.73047 0.208694
15836.54980 0.208695
15837.36035 0.208696
15838.16992 0.208697
15838.98047 0.208698
15839.79004 0.208698
15840.61035 0.208689
15841.41992 0.208676
15842.23047 0.208663
15843.04004 0.20865
15843.84961 0.208637
15844.66992 0.208624
15845.48047 0.20862
15846.29004 0.208623
15847.09961 0.208626
15847.91992 0.208629
15848.73047 0.208632
15849.54004 0.208635
15850.34961 0.208625
15851.16992 0.2086
15851.98047 0.208574
15852.79004 0.208548
15853.59961 0.208523
15854.41992 0.208497
15855.23047 0.20848
15856.04004 0.208482
15856.84961 0.208485
15857.66992 0.208487
15858.48047 0.208489
15859.29004 0.208492
15860.11035 0.208492
15860.91992 0.208472
15861.73047 0.208453
15862.54004 0.208434
15863.36035 0.208415
15864.16992 0.208396
15864.99023 0.208376
15865.79980 0.208357
15866.61035 0.208337
15867.41992 0.208317
15868.24023 0.208297
15869.04980 0.208277
15869.87012 0.208258
15870.67969 0.208238
15871.49023 0.208219
15872.30957 0.2082
15873.12012 0.208181
15873.92969 0.208162
15874.75000 0.208143
15875.55957 0.208127
15876.37988 0.208112
15877.19043 0.208097
15878.00000 0.208083
15878.82031 0.208068
15879.62988 0.208053
15880.45020 0.20803
15881.25977 0.208001
15882.07031 0.207971
15882.88965 0.207941
15883.70020 0.207912
15884.51953 0.207882
15885.33008 0.207856
15886.13965 0.207834
15886.95996 0.207813
15887.76953 0.207792
15888.58984 0.207771
15889.40039 0.207749
15890.21973 0.207728
15891.03027 0.207705
15891.84961 0.207682
15892.66016 0.207659
15893.48047 0.207636
15894.29004 0.207613
15895.09961 0.20759
15895.91992 0.207566
15896.73047 0.207541
15897.54980 0.207517
15898.36035 0.207492
15899.17969 0.207468
15900.00000 0.207444
15900.80957 0.207424
15901.62012 0.207404
15902.44043 0.207384
15903.25000 0.207364
15904.07031 0.207344
15904.88965 0.207325
15905.70020 0.207299
15906.51953 0.207273
15907.33008 0.207246
15908.15039 0.20722
15908.95996 0.207193
15909.78027 0.207167
15910.58984 0.207147
15911.41016 0.20713
15912.23047 0.207114
15913.04004 0.207097
15913.86035 0.20708
15914.66992 0.207063
15915.49023 0.20704
15916.29980 0.207011
15917.12012 0.206983
15917.94043 0.206955
15918.75000 0.206927
15919.57031 0.206899
15920.37988 0.206877
15921.20020 0.20686
15922.01953 0.206844
15922.83008 0.206828
15923.65039 0.206811
15924.46973 0.206795
15925.28027 0.206769
15926.09961 0.206725
15926.91992 0.206681
15927.73047 0.206638
15928.54980 0.206594
15929.36035 0.20655
15930.17969 0.20651
15931.00000 0.206484
15931.80957 0.206458
15932.62988 0.206432
15933.45020 0.206406
15934.25977 0.20638
15935.08008 0.206353
15935.90039 0.206321
15936.71973 0.206288
15937.53027 0.206255
15938.34961 0.206222
15939.16992 0.206189
15939.98047 0.206156
15940.79980 0.206145
15941.62012 0.206135
15942.44043 0.206124
15943.25000 0.206114
15944.07031 0.206103
15944.88965 0.206093
15945.70996 0.206036
15946.51953 0.205973
15947.33984 0.205909
15948.16016 0.205845
15948.96973 0.205781
15949.79004 0.205718
15950.61035 0.205702
15951.42969 0.205703
15952.25000 0.205705
15953.05957 0.205706
15953.87988 0.205707
15954.70020 0.205708
15955.51953 0.205671
15956.33008 0.205612
15957.15039 0.205553
15957.96973 0.205494
15958.79004 0.205435
15959.61035 0.205376
15960.41992 0.205343
15961.24023 0.205333
15962.05957 0.205323
15962.87988 0.205314
15963.70020 0.205304
15964.51953 0.205295
15965.33008 0.205271
15966.15039 0.205227
15966.96973 0.205184
15967.79004 0.20514
15968.61035 0.205096
15969.42969 0.205052
15970.25000 0.205009
15971.05957 0.204966
15971.87988 0.204922
15972.70020 0.204879
15973.51953 0.204836
15974.33984 0.204792
15975.16016 0.204754
15975.98047 0.20474
15976.79980 0.204725
15977.62012 0.20471
15978.42969 0.204696
15979.25000 0.204681
15980.07031 0.204664
15980.88965 0.204621
15981.70996 0.204577
15982.53027 0.204534
15983.34961 0.204491
15984.16992 0.204448
15984.99023 0.204404
15985.80957 0.204357
15986.62988 0.20431
15987.45020 0.204262
15988.26953 0.204214
15989.08984 0.204167
15989.91016 0.204119
15990.73047 0.204095
15991.54980 0.204073
15992.37012 0.204052
15993.19043 0.20403
15994.00977 0.204009
15994.83008 0.203987
15995.65039 0.203942
15996.45996 0.203891
15997.29004 0.20384
15998.11035 0.203788
15998.92969 0.203737
15999.75000 0.203686
16000.57031 0.203661
16001.38965 0.203648
16002.20996 0.203635
16003.03027 0.203622
16003.84961 0.203609
16004.66992 0.203596
16005.49023 0.203575
16006.30957 0.203549
16007.12988 0.203523
16007.95020 0.203497
16008.76953 0.203471
16009.58984 0.203445
16010.41016 0.203419
16011.23047 0.203394
16012.04980 0.203369
16012.87012 0.203344
16013.70020 0.203319
16014.51953 0.203294
16015.33984 0.203277
16016.16016 0.203272
16016.98047 0.203267
16017.79980 0.203262
16018.62012 0.203257
16019.44043 0.203252
16020.25977 0.203242
16021.08008 0.203222
16021.91016 0.203201
16022.73047 0.203181
16023.54980 0.20316
16024.37012 0.20314
16025.19043 0.203117
16026.00977 0.203086
16026.83008 0.203056
16027.66016 0.203026
16028.48047 0.202996
16029.29980 0.202965
16030.12012 0.202941
16030.94043 0.20295
16031.76953 0.202959
16032.58984 0.202968
16033.41016 0.202978
16034.23047 0.202987
16035.04980 0.202994
16035.87988 0.202973
16036.70020 0.202952
16037.51953 0.202931
16038.33984 0.20291
16039.16016 0.20289
16039.99023 0.202869
16040.80957 0.202855
16041.62988 0.202841
16042.45020 0.202827
16043.28027 0.202813
16044.09961 0.2028
16044.91992 0.202786
16045.74023 0.202787
16046.57031 0.20279
16047.38965 0.202792
16048.20996 0.202795
16049.03027 0.202798
16049.86035 0.2028
16050.67969 0.202786
16051.50000 0.202767
16052.32031 0.202748
16053.15039 0.20273
16053.96973 0.202711
16054.79004 0.202692
16055.62012 0.202682
16056.44043 0.202674
16057.25977 0.202667
16058.08008 0.202659
16058.91016 0.202652
16059.73047 0.202644
16060.54980 0.202631
16061.37988 0.202615
16062.20020 0.202599
16063.03027 0.202582
16063.84961 0.202566
16064.66992 0.20255
16065.50000 0.202542
16066.32031 0.202541
16067.13965 0.202539
16067.96973 0.202537
16068.79004 0.202536
16069.61035 0.202534
16070.44043 0.202531
16071.25977 0.202528
16072.08984 0.202525
16072.91016 0.202521
16073.73047 0.202518
16074.55957 0.202515
16075.37988 0.202511
16076.20996 0.202507
16077.03027 0.202502
16077.84961 0.202498
16078.67969 0.202493
16079.50000 0.202489
16080.33008 0.202481
16081.15039 0.202469
16081.98047 0.202458
16082.79980 0.202445
16083.62012 0.202433
16084.45020 0.202421
16085.26953 0.202416
16086.09961 0.202423
16086.91992 0.202431
16087.75000 0.202438
16088.57031 0.202445
16089.40039 0.202453
16090.21973 0.202455
16091.04980 0.202445
16091.87012 0.202435
16092.70020 0.202425
16093.51953 0.202415
16094.34961 0.202405
16095.16992 0.202398
16096.00000 0.202402
16096.82031 0.202407
16097.65039 0.202411
16098.46973 0.202415
16099.29980 0.202419
16100.12012 0.202426
16100.95020 0.202447
16101.76953 0.202468
16102.59961 0.202489
16103.41992 0.20251
16104.25000 0.20253
16105.08008 0.20255
16105.90039 0.202558
16106.73047 0.202566
16107.54980 0.202574
16108.37988 0.202583
16109.20020 0.202591
16110.03027 0.2026
16110.86035 0.20263
16111.67969 0.20266
16112.50977 0.20269
16113.33008 0.20272
16114.16016 0.20275
16114.99023 0.20278
16115.80957 0.202794
16116.63965 0.202808
16117.45996 0.202822
16118.29004 0.202836
16119.12012 0.20285
16119.94043 0.202864
16120.76953 0.202888
16121.59961 0.202912
16122.41992 0.202936
16123.25000 0.202961
16124.08008 0.202985
16124.90039 0.203009
16125.73047 0.203037
16126.54980 0.203066
16127.37988 0.203094
16128.20996 0.203123
16129.04004 0.203152
16129.86035 0.20318
16130.69043 0.203207
16131.51953 0.203234
16132.33984 0.20326
16133.16992 0.203287
16134.00000 0.203313
16134.82031 0.20334
16135.65039 0.203365
16136.48047 0.203389
16137.30957 0.203413
16138.12988 0.203437
16138.95996 0.203461
16139.79004 0.203485
16140.62012 0.203529
16141.44043 0.203578
16142.26953 0.203628
16143.09961 0.203678
16143.91992 0.203727
16144.75000 0.203777
16145.58008 0.203806
16146.41016 0.203825
16147.24023 0.203845
16148.05957 0.203864
16148.88965 0.203884
16149.71973 0.203903
16150.54980 0.203932
16151.37988 0.203966
16152.20020 0.204
16153.03027 0.204033
16153.86035 0.204067
16154.69043 0.204101
16155.51953 0.204139
16156.33984 0.204179
16157.16992 0.20422
16158.00000 0.20426
16158.83008 0.204301
16159.66016 0.204341
16160.49023 0.204376
16161.30957 0.204408
16162.13965 0.204439
16162.96973 0.20447
16163.79980 0.204502
16164.62988 0.204533
16165.45996 0.204566
16166.29004 0.2046
16167.11035 0.204633
16167.94043 0.204667
16168.76953 0.204701
16169.59961 0.204734
16170.42969 0.204777
16171.25977 0.204829
16172.08984 0.204881
16172.91992 0.204933
16173.75000 0.204985
16174.57031 0.205037
16175.40039 0.205084
16176.23047 0.205127
16177.05957 0.205169
16177.88965 0.205212
16178.71973 0.205255
16179.54980 0.205297
16180.37988 0.205342
16181.20996 0.20539
16182.04004 0.205439
16182.87012 0.205487
16183.70020 0.205535
16184.53027 0.205583
16185.36035 0.205633
16186.19043 0.205686
16187.01953 0.205739
16187.84961 0.205791
16188.67969 0.205844
16189.50977 0.205897
16190.33984 0.205947
16191.16992 0.205994
16192.00000 0.206042
16192.83008 0.206089
16193.66016 0.206136
16194.49023 0.206183
16195.32031 0.206233
16196.15039 0.206286
16196.98047 0.20634
16197.80957 0.206394
16198.63965 0.206448
16199.46973 0.206501
16200.29980 0.206554
16201.12988 0.206604
16201.95996 0.206655
16202.79004 0.206705
16203.62012 0.206756
16204.45020 0.206806
16205.28027 0.206859
16206.11035 0.206917
16206.94043 0.206974
16207.76953 0.207032
16208.61035 0.207089
16209.44043 0.207147
16210.26953 0.207205
16211.09961 0.207264
16211.92969 0.207324
16212.75977 0.207384
16213.58984 0.207444
16214.41992 0.207503
16215.25000 0.207563
16216.08008 0.207624
16216.91992 0.207685
16217.75000 0.207747
16218.58008 0.207808
16219.41016 0.207869
16220.24023 0.207931
16221.07031 0.207994
16221.91016 0.208058
16222.74023 0.208122
16223.57031 0.208185
16224.40039 0.208249
16225.23047 0.208313
16226.05957 0.208379
16226.90039 0.208445
16227.73047 0.208511
16228.55957 0.208577
16229.38965 0.208642
16230.21973 0.208706
16231.05957 0.208762
16231.88965 0.208818
16232.71973 0.208875
16233.54980 0.208931
16234.37988 0.208988
16235.21973 0.209047
16236.04980 0.209117
16236.87988 0.209186
16237.70996 0.209255
16238.54980 0.209324
16239.37988 0.209393
16240.20996 0.209461
16241.04004 0.209526
16241.87988 0.20959
16242.70996 0.209654
16243.54004 0.209719
16244.37012 0.209783
16245.20996 0.209848
16246.04004 0.209916
16246.87012 0.209984
16247.70996 0.210052
16248.54004 0.21012
16249.37012 0.210188
16250.20020 0.210255
16251.04004 0.21032
16251.87012 0.210385
16252.70020 0.21045
16253.54004 0.210515
16254.37012 0.21058
16255.20020 0.210642
16256.04004 0.210697
16256.87012 0.210753
16257.70020 0.210808
16258.54004 0.210863
16259.37012 0.210918
16260.20020 0.210981
16261.04004 0.211069
16261.87012 0.211156
16262.70020 0.211244
16263.54004 0.211331
16264.37012 0.211419
16265.20996 0.211496
16266.04004 0.211542
16266.87012 0.211587
16267.70996 0.211633
16268.54004 0.211678
16269.37012 0.211723
16270.20996 0.211775
16271.04004 0.211843
16271.87988 0.211912
16272.70996 0.211981
16273.54004 0.212049
16274.37988 0.212118
16275.20996 0.212192
16276.04980 0.212282
16276.87988 0.212372
16277.71973 0.212461
16278.54980 0.212551
16279.38965 0.212641
16280.21973 0.212724
16281.04980 0.212787
16281.88965 0.21285
16282.71973 0.212913
16283.55957 0.212976
16284.38965 0.213039
16285.23047 0.213106
16286.05957 0.213181
16286.90039 0.213256
16287.73047 0.213332
16288.57031 0.213407
16289.40039 0.213482
16290.24023 0.213562
16291.07031 0.213651
16291.91016 0.213741
16292.74023 0.21383
16293.58008 0.21392
16294.41016 0.214009
16295.25000 0.214094
16296.08008 0.214166
16296.91992 0.214238
16297.75977 0.21431
16298.58984 0.214383
16299.42969 0.214455
16300.25977 0.214528
16301.09961 0.214602
16301.92969 0.214676
16302.76953 0.214751
16303.61035 0.214825
16304.44043 0.2149
16305.28027 0.214977
16306.11035 0.215061
16306.95020 0.215145
16307.78027 0.215228
16308.62012 0.215312
16309.45996 0.215396
16310.29004 0.215481
16311.12988 0.21557
16311.95996 0.215658
16312.79980 0.215746
16313.63965 0.215835
16314.46973 0.215923
16315.30957 0.216005
16316.15039 0.216077
16316.98047 0.216149
16317.82031 0.21622
16318.66016 0.216292
16319.49023 0.216364
16320.33008 0.216437
16321.16992 0.216511
16322.00000 0.216585
16322.83984 0.216659
16323.67969 0.216733
16324.50977 0.216807
16325.34961 0.216883
16326.19043 0.216959
16327.01953 0.217036
16327.86035 0.217113
16328.70020 0.217189
16329.53027 0.217266
16330.37012 0.217336
16331.20996 0.217398
16332.04980 0.21746
16332.87988 0.217522
16333.71973 0.217584
16334.55957 0.217646
16335.40039 0.217718
16336.23047 0.217802
16337.07031 0.217886
16337.91016 0.217971
16338.75000 0.218055
16339.58008 0.218139
16340.41992 0.218212
16341.25977 0.218275
16342.09961 0.218338
16342.92969 0.218401
16343.76953 0.218464
16344.61035 0.218527
16345.45020 0.218598
16346.29004 0.218676
16347.12012 0.218754
16347.95996 0.218832
16348.79980 0.21891
16349.63965 0.218988
16350.48047 0.219066
16351.30957 0.219142
16352.15039 0.219219
16352.99023 0.219295
16353.83008 0.219372
16354.66992 0.219449
16355.50000 0.219522
16356.33984 0.219593
16357.17969 0.219665
16358.01953 0.219736
16358.86035 0.219807
16359.70020 0.219878
16360.54004 0.219949
16361.37988 0.220019
16362.20996 0.220088
16363.04980 0.220158
16363.88965 0.220228
16364.73047 0.220298
16365.57031 0.220366
16366.41016 0.220433
16367.25000 0.2205
16368.08984 0.220567
16368.92969 0.220634
16369.75977 0.220701
16370.59961 0.220782
16371.44043 0.220868
16372.28027 0.220954
16373.12012 0.22104
16373.95996 0.221126
16374.79980 0.221212
16375.63965 0.221279
16376.48047 0.221339
16377.32031 0.2214
16378.16016 0.221461
16379.00000 0.221522
16379.83984 0.221582
16380.67969 0.221652
16381.51953 0.221723
16382.36035 0.221795
16383.20020 0.221866
16384.03906 0.221938
16384.88086 0.222009
16385.72070 0.222096
16386.56055 0.222185
16387.40039 0.222275
16388.24023 0.222364
16389.08008 0.222453
16389.91992 0.222543
16390.75977 0.222607
16391.59961 0.222668
16392.43945 0.222729
16393.27930 0.222791
16394.11914 0.222852
16394.96094 0.222914
16395.80078 0.22298
16396.64062 0.223048
16397.48047 0.223115
16398.32031 0.223182
16399.16016 0.223249
16400.00000 0.223316
16400.83984 0.223393
16401.67969 0.223471
16402.52930 0.223548
16403.36914 0.223625
16404.21094 0.223703
16405.05078 0.223779
16405.89062 0.223839
16406.73047 0.223899
16407.57031 0.223958
16408.41016 0.224018
16409.25000 0.224078
16410.08984 0.224138
16410.93945 0.224196
16411.77930 0.224254
16412.61914 0.224312
16413.46094 0.22437
16414.30078 0.224428
16415.14062 0.224489
16415.98047 0.224564
16416.82031 0.224638
16417.66992 0.224713
16418.50977 0.224788
16419.34961 0.224862
16420.18945 0.224932
16421.02930 0.224986
16421.86914 0.22504
16422.72070 0.225094
16423.56055 0.225148
16424.40039 0.225202
16425.24023 0.225255
16426.08984 0.225303
16426.92969 0.225351
16427.76953 0.2254
16428.60938 0.225448
16429.44922 0.225496
16430.28906 0.225548
16431.14062 0.225605
16431.98047 0.225663
16432.82031 0.22572
16433.66992 0.225778
16434.50977 0.225836
16435.34961 0.225892
16436.18945 0.225946
16437.03906 0.226
16437.88086 0.226054
16438.72070 0.226108
16439.56055 0.226162
16440.41016 0.226226
16441.25000 0.2263
16442.08984 0.226374
16442.93945 0.226449
16443.77930 0.226523
16444.61914 0.226597
16445.46094 0.226646
16446.31055 0.226674
16447.15039 0.226703
16447.99023 0.226731
16448.83984 0.22676
16449.67969 0.226788
16450.51953 0.226834
16451.36914 0.22689
16452.21094 0.226947
16453.05078 0.227004
16453.90039 0.227061
16454.74023 0.227118
16455.58008 0.227186
16456.42969 0.22726
16457.26953 0.227333
16458.10938 0.227407
16458.96094 0.227481
16459.80078 0.227555
16460.64062 0.227595
16461.49023 0.227626
16462.33008 0.227656
16463.17969 0.227687
16464.01953 0.227717
16464.86914 0.227747
16465.71094 0.227808
16466.55078 0.227874
16467.40039 0.22794
16468.24023 0.228007
16469.08984 0.228073
16469.92969 0.228139
16470.76953 0.228204
16471.61914 0.22827
16472.46094 0.228335
16473.31055 0.2284
16474.15039 0.228466
16475.00000 0.228531
16475.83984 0.228567
16476.68945 0.228603
16477.52930 0.228639
16478.38086 0.228676
16479.22070 0.228712
16480.06055 0.22875
16480.91016 0.228812
16481.75000 0.228873
16482.59961 0.228935
16483.43945 0.228997
16484.28906 0.229059
16485.13086 0.229118
16485.98047 0.229163
16486.82031 0.229208
16487.66992 0.229253
16488.51953 0.229298
16489.35938 0.229343
16490.21094 0.229387
16491.05078 0.229425
16491.90039 0.229463
16492.74023 0.2295
16493.58984 0.229538
16494.42969 0.229576
16495.27930 0.229617
16496.11914 0.229665
16496.97070 0.229713
16497.81055 0.229761
16498.66016 0.229809
16499.50977 0.229857
16500.34961 0.229897
16501.19922 0.229927
16502.03906 0.229956
16502.89062 0.229986
16503.74023 0.230015
16504.58008 0.230045
16505.42969 0.230083
16506.27930 0.23013
16507.11914 0.230177
16507.97070 0.230224
16508.81055 0.230271
16509.66016 0.230319
16510.50977 0.230358
16511.34961 0.230392
16512.19922 0.230427
16513.03906 0.230461
16513.89062 0.230495
16514.74023 0.230529
16515.58008 0.230557
16516.42969 0.230583
16517.27930 0.230609
16518.13086 0.230635
16518.97070 0.230661
16519.82031 0.230687
16520.66992 0.230727
16521.50977 0.230772
16522.35938 0.230816
16523.21094 0.230861
16524.05078 0.230906
16524.90039 0.23095
16525.75000 0.23098
16526.59961 0.231007
16527.43945 0.231035
16528.28906 0.231062
16529.14062 0.231089
16529.98047 0.231117
16530.83008 0.231143
16531.67969 0.231169
16532.52930 0.231196
16533.36914 0.231222
16534.22070 0.231248
16535.07031 0.231276
16535.91992 0.231318
16536.75977 0.23136
16537.60938 0.231402
16538.46094 0.231444
16539.31055 0.231486
16540.16016 0.231528
16541.00000 0.23157
16541.84961 0.231613
16542.69922 0.231655
16543.55078 0.231698
16544.40039 0.23174
16545.24023 0.231778
16546.08984 0.231804
16546.93945 0.23183
16547.78906 0.231856
16548.64062 0.231881
16549.48047 0.231907
16550.33008 0.231939
16551.17969 0.231978
16552.02930 0.232018
16552.88086 0.232057
16553.73047 0.232097
16554.58008 0.232137
16555.41992 0.232175
16556.26953 0.232211
16557.11914 0.232248
16557.97070 0.232285
16558.82031 0.232321
16559.66992 0.232358
16560.51953 0.232388
16561.36914 0.232414
16562.21094 0.232439
16563.06055 0.232465
16563.91016 0.232491
16564.75977 0.232517
16565.60938 0.232558
16566.46094 0.232605
16567.31055 0.232652
16568.16016 0.232699
16569.00977 0.232747
16569.85938 0.232794
16570.71094 0.232816
16571.56055 0.232834
16572.41016 0.232852
16573.25977 0.232869
16574.10938 0.232887
16574.96094 0.232905
16575.80078 0.232942
16576.65039 0.23298
16577.50977 0.233018
16578.35938 0.233056
16579.21094 0.233095
16580.05078 0.233133
16580.90039 0.233166
16581.75000 0.233199
16582.60938 0.233232
16583.46094 0.233265
16584.30078 0.233297
16585.15039 0.233327
16586.00977 0.233339
16586.85938 0.233351
16587.71094 0.233363
16588.56055 0.233375
16589.41016 0.233387
16590.25977 0.233408
16591.10938 0.23345
16591.96094 0.233492
16592.81055 0.233534
16593.66016 0.233576
16594.50977 0.233618
16595.35938 0.233648
16596.21094 0.23366
16597.06055 0.233672
16597.91016 0.233684
16598.75977 0.233697
16599.61914 0.233709
16600.46094 0.233737
16601.32031 0.233777
16602.16992 0.233817
16603.01953 0.233858
16603.86914 0.233898
16604.72070 0.233938
16605.57031 0.233975
16606.41992 0.234009
16607.27930 0.234043
16608.13086 0.234078
16608.98047 0.234112
16609.83008 0.234147
16610.67969 0.234178
16611.52930 0.234208
16612.38086 0.234239
16613.24023 0.234269
16614.08984 0.234299
16614.93945 0.23433
16615.78906 0.234361
16616.64062 0.234393
16617.49023 0.234424
16618.34961 0.234455
16619.19922 0.234487
16620.05078 0.234518
16620.90039 0.234542
16621.75000 0.234567
16622.60938 0.234592
16623.46094 0.234617
16624.31055 0.234642
16625.16016 0.234667
16626.01953 0.234697
16626.86914 0.234727
16627.72070 0.234756
16628.57031 0.234786
16629.41992 0.234816
16630.27930 0.234851
16631.13086 0.234897
16631.98047 0.234943
16632.83008 0.234989
16633.68945 0.235035
16634.53906 0.235081
16635.39062 0.235123
16636.25000 0.235159
16637.09961 0.235195
16637.94922 0.235231
16638.80078 0.235267
16639.66016 0.235304
16640.50977 0.235336
16641.35938 0.235366
16642.22070 0.235396
16643.07031 0.235426
16643.91992 0.235456
16644.77930 0.235486
16645.63086 0.235526
16646.48047 0.235569
16647.33984 0.235612
16648.18945 0.235656
16649.03906 0.235699
16649.90039 0.235742
16650.75000 0.235783
16651.59961 0.235824
16652.46094 0.235865
16653.31055 0.235905
16654.16016 0.235946
16655.01953 0.235986
16655.86914 0.236015
16656.73047 0.236044
16657.58008 0.236073
16658.42969 0.236102
16659.28906 0.236131
16660.14062 0.236163
16661.00000 0.236209
16661.84961 0.236255
16662.69922 0.236302
16663.56055 0.236348
16664.41016 0.236394
16665.26953 0.23643
16666.11914 0.236442
16666.97070 0.236454
16667.83008 0.236466
16668.67969 0.236478
16669.53906 0.23649
16670.39062 0.236516
16671.25000 0.236558
16672.09961 0.236601
16672.96094 0.236644
16673.81055 0.236687
16674.66992 0.236729
16675.51953 0.236762
16676.38086 0.236788
16677.23047 0.236814
16678.08984 0.23684
16678.93945 0.236866
16679.80078 0.236892
16680.65039 0.236925
16681.50977 0.236959
16682.35938 0.236994
16683.22070 0.237029
16684.07031 0.237063
16684.92969 0.237098
16685.77930 0.237136
16686.64062 0.237174
16687.49023 0.237212
16688.34961 0.23725
16689.21094 0.237289
16690.06055 0.237325
16690.91992 0.237334
16691.76953 0.237344
16692.63086 0.237353
16693.48047 0.237363
16694.33984 0.237372
16695.19922 0.237388
16696.05078 0.237424
16696.91016 0.237461
16697.75977 0.237497
16698.61914 0.237534
16699.47070 0.23757
16700.33008 0.237607
16701.18945 0.237643
16702.03906 0.237678
16702.90039 0.237714
16703.75977 0.23775
16704.60938 0.237786
16705.47070 0.237815
16706.32031 0.237838
16707.17969 0.23786
16708.03906 0.237883
16708.89062 0.237906
16709.75000 0.237929
16710.60938 0.237957
16711.46094 0.237987
16712.32031 0.238017
16713.17969 0.238047
16714.02930 0.238077
16714.89062 0.238107
16715.75000 0.238143
16716.59961 0.238179
16717.46094 0.238215
16718.32031 0.238252
16719.17969 0.238288
16720.02930 0.238324
16720.89062 0.238357
16721.75000 0.238389
16722.59961 0.238422
16723.46094 0.238454
16724.32031 0.238486
16725.17969 0.238517
16726.02930 0.238542
16726.89062 0.238566
16727.75000 0.238591
16728.60938 0.238615
16729.46094 0.23864
16730.32031 0.238668
16731.17969 0.238703
16732.03906 0.238737
16732.89062 0.238771
16733.75000 0.238806
16734.60938 0.23884
16735.47070 0.238876
16736.33008 0.238915
16737.17969 0.238953
16738.03906 0.238991
16738.90039 0.239029
16739.75977 0.239067
16740.61914 0.23911
16741.47070 0.239155
16742.33008 0.2392
16743.18945 0.239245
16744.05078 0.23929
16744.91016 0.239334
16745.76953 0.239355
16746.61914 0.239372
16747.48047 0.239389
16748.33984 0.239406
16749.19922 0.239424
16750.06055 0.239442
16750.91992 0.239473
16751.77930 0.239505
16752.63086 0.239536
16753.49023 0.239568
16754.34961 0.239599
16755.21094 0.239633
16756.07031 0.239673
16756.92969 0.239712
16757.78906 0.239752
16758.65039 0.239792
16759.50977 0.239832
16760.36914 0.239863
16761.22070 0.239881
16762.08008 0.2399
16762.93945 0.239918
16763.80078 0.239937
16764.66016 0.239955
16765.51953 0.239971
16766.38086 0.239985
16767.24023 0.239999
16768.09961 0.240013
16768.96094 0.240027
16769.82031 0.240041
16770.67969 0.240064
16771.53906 0.240089
16772.40039 0.240113
16773.25977 0.240138
16774.11914 0.240162
16774.98047 0.240187
16775.83984 0.240205
16776.69922 0.240223
16777.56055 0.24024
16778.41992 0.240258
16779.27930 0.240275
16780.14062 0.240296
16781.00000 0.240332
16781.85938 0.240368
16782.72070 0.240403
16783.58008 0.24044
16784.43945 0.240475
16785.30078 0.240501
16786.16016 0.240509
16787.01953 0.240516
16787.88086 0.240524
16788.74023 0.240531
16789.59961 0.240539
16790.46094 0.240549
16791.32031 0.240562
16792.18945 0.240575
16793.05078 0.240588
16793.91016 0.2406
16794.76953 0.240613
16795.63086 0.24064
16796.49023 0.240671
16797.34961 0.240702
16798.21094 0.240733
16799.07031 0.240765
16799.92969 0.240796
16800.78906 0.240824
16801.66016 0.240851
16802.51953 0.240878
16803.38086 0.240905
16804.24023 0.240932
16805.09961 0.240958
16805.96094 0.240981
16806.83008 0.241004
16807.68945 0.241026
16808.55078 0.241049
16809.41016 0.241071
16810.26953 0.241096
16811.13086 0.241123
16812.00000 0.241151
16812.85938 0.241178
16813.72070 0.241206
16814.58008 0.241233
16815.43945 0.241254
16816.30078 0.241267
16817.16992 0.24128
16818.02930 0.241294
16818.89062 0.241307
16819.75000 0.24132
16820.61914 0.241341
16821.48047 0.241366
16822.33984 0.241391
16823.19922 0.241415
16824.07031 0.24144
16824.92969 0.241464
16825.78906 0.241492
16826.65039 0.24152
16827.51953 0.241548
16828.38086 0.241576
16829.24023 0.241604
16830.09961 0.241631
16830.97070 0.241656
16831.83008 0.241681
16832.68945 0.241705
16833.55078 0.24173
16834.41992 0.241755
16835.27930 0.241778
16836.14062 0.2418
16837.00977 0.241821
16837.86914 0.241842
16838.73047 0.241864
16839.59961 0.241885
16840.46094 0.241897
16841.32031 0.241901
16842.18945 0.241905
16843.05078 0.241908
16843.91016 0.241912
16844.77930 0.241916
16845.64062 0.241925
16846.50000 0.241935
16847.36914 0.241946
16848.23047 0.241956
16849.09961 0.241967
16849.96094 0.241978
16850.82031 0.241992
16851.68945 0.242007
16852.55078 0.242022
16853.41016 0.242036
16854.27930 0.242051
16855.14062 0.242062
16856.00977 0.242055
16856.86914 0.242048
16857.73047 0.242041
16858.59961 0.242034
16859.46094 0.242027
16860.33008 0.242025
16861.18945 0.242032
16862.06055 0.242039
16862.91992 0.242045
16863.78906 0.242052
16864.65039 0.242059
16865.50977 0.242067
16866.38086 0.242077
16867.24023 0.242087
16868.10938 0.242097
16868.97070 0.242107
16869.83984 0.242117
16870.69922 0.242112
16871.57031 0.242104
16872.42969 0.242095
16873.30078 0.242087
16874.16016 0.242079
16875.02930 0.242071
16875.89062 0.242075
16876.75977 0.242079
16877.61914 0.242084
16878.49023 0.242088
16879.34961 0.242092
16880.22070 0.242096
16881.08008 0.2421
16881.94922 0.242105
16882.81055 0.242109
16883.67969 0.242113
16884.53906 0.242117
16885.41016 0.242118
16886.27930 0.242116
16887.14062 0.242115
16888.00977 0.242113
16888.86914 0.242111
16889.74023 0.24211
16890.60938 0.242109
16891.47070 0.242109
16892.33984 0.242109
16893.19922 0.242109
16894.07031 0.242109
16894.93945 0.242109
16895.80078 0.242111
16896.66992 0.242114
16897.52930 0.242116
16898.40039 0.242118
16899.26953 0.242121
16900.13086 0.242121
16901.00000 0.242113
16901.86914 0.242105
16902.73047 0.242097
16903.59961 0.242089
16904.46094 0.242081
16905.33008 0.242074
16906.19922 0.242068
16907.06055 0.242062
16907.92969 0.242057
16908.80078 0.242051
16909.66016 0.242045
16910.52930 0.242035
16911.40039 0.242024
16912.26953 0.242012
16913.13086 0.242
16914.00000 0.241988
16914.86914 0.241977
16915.73047 0.24196
16916.59961 0.241943
16917.47070 0.241926
16918.33984 0.241909
16919.19922 0.241892
16920.07031 0.241875
16920.93945 0.241868
16921.80078 0.24186
16922.66992 0.241853
16923.53906 0.241845
16924.41016 0.241838
16925.27930 0.241824
16926.14062 0.241798
16927.00977 0.241771
16927.88086 0.241745
16928.75000 0.241718
16929.60938 0.241691
16930.48047 0.241675
16931.34961 0.241668
16932.22070 0.24166
16933.08984 0.241652
16933.94922 0.241644
16934.82031 0.241637
16935.68945 0.241619
16936.56055 0.241599
16937.42969 0.241578
16938.28906 0.241558
16939.16016 0.241538
16940.02930 0.241517
16940.90039 0.241474
16941.76953 0.241432
16942.64062 0.24139
16943.50977 0.241347
16944.36914 0.241305
16945.24023 0.241271
16946.10938 0.24126
16946.98047 0.241248
16947.84961 0.241237
16948.72070 0.241225
16949.58984 0.241214
16950.46094 0.24119
16951.32031 0.241155
16952.18945 0.24112
16953.06055 0.241085
16953.92969 0.24105
16954.80078 0.241015
16955.66992 0.240976
16956.53906 0.240936
16957.41016 0.240896
16958.27930 0.240855
16959.15039 0.240815
16960.01953 0.240775
16960.88086 0.24075
16961.75977 0.240726
16962.63086 0.240701
16963.49023 0.240677
16964.35938 0.240652
16965.23047 0.240623
16966.09961 0.240585
16966.97070 0.240547
16967.83984 0.240508
16968.71094 0.24047
16969.58008 0.240431
16970.44922 0.240399
16971.32031 0.240374
16972.18945 0.240348
16973.06055 0.240323
16973.92969 0.240297
16974.80078 0.240271
16975.66992 0.240234
16976.53906 0.240192
16977.41016 0.24015
16978.27930 0.240109
16979.15039 0.240067
16980.02930 0.240025
16980.89062 0.239974
16981.76953 0.239922
16982.64062 0.23987
16983.50977 0.239819
16984.38086 0.239767
16985.25000 0.239726
16986.11914 0.239713
16986.99023 0.2397
16987.85938 0.239687
16988.73047 0.239674
16989.59961 0.239661
16990.47070 0.239637
16991.33984 0.239605
16992.21094 0.239572
16993.08984 0.239539
16993.96094 0.239507
16994.83008 0.239474
16995.69922 0.239431
16996.57031 0.239386
16997.43945 0.239341
16998.31055 0.239295
16999.18945 0.23925
17000.06055 0.239204
17000.92969 0.239156
17001.80078 0.239108
17002.66992 0.23906
17003.53906 0.239013
17004.41016 0.238965
17005.28906 0.238903
17006.16016 0.238811
17007.02930 0.238721
17007.90039 0.238629
17008.76953 0.238538
17009.64062 0.238447
17010.51953 0.238356
17011.39062 0.238265
17012.25977 0.238174
17013.13086 0.238083
17014.00977 0.237992
17014.88086 0.2379
17015.75000 0.237828
17016.61914 0.237759
17017.49023 0.23769
17018.36914 0.237621
17019.24023 0.237551
17020.10938 0.23748
17020.98047 0.23739
17021.85938 0.2373
17022.73047 0.23721
17023.59961 0.237121
17024.47070 0.237031
17025.34961 0.236947
17026.22070 0.236872
17027.08984 0.236797
17027.97070 0.236722
17028.83984 0.236647
17029.71094 0.236572
17030.58984 0.236484
17031.46094 0.23639
17032.33008 0.236297
17033.21094 0.236203
17034.08008 0.236109
17034.94922 0.236016
17035.82031 0.235929
17036.69922 0.235844
17037.57031 0.235758
17038.44922 0.235672
17039.32031 0.235587
17040.18945 0.2355
17041.06055 0.235413
17041.93945 0.235325
17042.81055 0.235237
17043.68945 0.23515
17044.56055 0.235062
17045.42969 0.234968
17046.31055 0.234867
17047.17969 0.234766
17048.05078 0.234665
17048.92969 0.234565
17049.80078 0.234464
17050.67969 0.234373
17051.55078 0.234286
17052.42969 0.234198
17053.30078 0.23411
17054.16992 0.234022
17055.05078 0.233935
17055.91992 0.233857
17056.80078 0.233779
17057.66992 0.233702
17058.53906 0.233624
17059.41992 0.233546
17060.28906 0.233457
17061.16992 0.233347
17062.03906 0.233238
17062.91992 0.233128
17063.78906 0.233018
17064.66992 0.232908
17065.53906 0.232811
17066.41992 0.232722
17067.28906 0.232633
17068.16992 0.232544
17069.03906 0.232456
17069.91992 0.232367
17070.78906 0.232275
17071.66992 0.232183
17072.53906 0.232091
17073.41992 0.231999
17074.28906 0.231907
17075.16992 0.231815
17076.03906 0.231726
17076.91992 0.231636
17077.78906 0.231547
17078.66992 0.231458
17079.53906 0.231369
17080.41992 0.231285
17081.30078 0.231208
17082.16992 0.231131
17083.05078 0.231053
17083.91992 0.230976
17084.80078 0.230899
17085.67969 0.230805
17086.55078 0.230707
17087.42969 0.230608
17088.30078 0.23051
17089.17969 0.230411
17090.05078 0.230313
17090.92969 0.230226
17091.81055 0.230139
17092.67969 0.230051
17093.56055 0.229964
17094.43945 0.229877
17095.31055 0.229785
17096.18945 0.229686
17097.06055 0.229587
17097.93945 0.229488
17098.82031 0.229388
17099.69922 0.229289
17100.57031 0.229209
17101.44922 0.229139
17102.32031 0.229069
17103.19922 0.229
17104.08008 0.22893
17104.96094 0.22886
17105.83008 0.228748
17106.71094 0.228634
17107.58984 0.22852
17108.46094 0.228406
17109.33984 0.228292
17110.22070 0.228191
17111.08984 0.228128
17111.97070 0.228064
17112.84961 0.228001
17113.73047 0.227937
17114.59961 0.227874
17115.48047 0.227796
17116.35938 0.227706
17117.24023 0.227616
17118.10938 0.227526
17118.99023 0.227436
17119.86914 0.227346
17120.75000 0.227248
17121.61914 0.227149
17122.50000 0.227049
17123.38086 0.22695
17124.25977 0.226851
17125.13086 0.226753
17126.00977 0.226664
17126.89062 0.226575
17127.76953 0.226487
17128.65039 0.226398
17129.52930 0.226309
17130.40039 0.226219
17131.27930 0.226128
17132.16016 0.226037
17133.03906 0.225946
17133.91992 0.225855
17134.78906 0.225764
17135.66992 0.225668
17136.55078 0.22557
17137.42969 0.225472
17138.31055 0.225374
17139.18945 0.225276
17140.06055 0.22518
17140.93945 0.225108
17141.82031 0.225036
17142.69922 0.224964
17143.58008 0.224892
17144.46094 0.224819
17145.33984 0.224741
17146.22070 0.224651
17147.09961 0.224561
17147.97070 0.224472
17148.84961 0.224382
17149.73047 0.224292
17150.60938 0.224217
17151.49023 0.224147
17152.36914 0.224077
17153.25000 0.224008
17154.13086 0.223938
17155.00977 0.223868
17155.89062 0.22377
17156.76953 0.223671
17157.65039 0.223573
17158.52930 0.223475
17159.41016 0.223377
17160.28906 0.223284
17161.16992 0.223203
17162.03906 0.223121
17162.92969 0.22304
17163.80078 0.222959
17164.68945 0.222877
17165.56055 0.222795
17166.44922 0.222713
17167.32031 0.222631
17168.21094 0.222549
17169.08008 0.222467
17169.96094 0.222385
17170.84961 0.222308
17171.72070 0.222231
17172.60938 0.222155
17173.49023 0.222078
17174.36914 0.222001
17175.25000 0.221922
17176.13086 0.221836
17177.00977 0.22175
17177.89062 0.221663
17178.76953 0.221577
17179.65039 0.22149
17180.52930 0.221411
17181.41016 0.221336
17182.28906 0.221262
17183.16992 0.221187
17184.05078 0.221112
17184.93945 0.221038
17185.82031 0.220955
17186.69922 0.220871
17187.58008 0.220788
17188.46094 0.220704
17189.33984 0.220621
17190.22070 0.220535
17191.09961 0.22044
17191.98047 0.220346
17192.86914 0.220251
17193.75000 0.220157
17194.63086 0.220062
17195.50977 0.219976
17196.39062 0.219896
17197.26953 0.219816
17198.15039 0.219736
17199.03906 0.219656
17199.91992 0.219575
17200.80078 0.219497
17201.67969 0.219419
17202.56055 0.219341
17203.44922 0.219263
17204.33008 0.219185
17205.21094 0.219105
17206.08984 0.219017
17206.97070 0.218929
17207.85938 0.21884
17208.74023 0.218752
17209.61914 0.218664
17210.50000 0.218583
17211.38086 0.21851
17212.26953 0.218435
17213.15039 0.218361
17214.02930 0.218287
17214.91016 0.218213
17215.78906 0.218123
17216.67969 0.218031
17217.56055 0.217939
17218.43945 0.217846
17219.33008 0.217754
17220.21094 0.217671
17221.08984 0.217617
17221.97070 0.217563
17222.85938 0.217508
17223.74023 0.217454
17224.61914 0.2174
17225.50977 0.217327
17226.39062 0.21724
17227.26953 0.217153
17228.16016 0.217067
17229.03906 0.21698
17229.91992 0.216893
17230.80078 0.216805
17231.68945 0.216717
17232.57031 0.216628
17233.46094 0.21654
17234.33984 0.216452
17235.22070 0.216373
17236.10938 0.216323
17236.99023 0.216272
17237.86914 0.216222
17238.75977 0.216171
17239.64062 0.21612
17240.51953 0.216056
17241.41016 0.215981
17242.28906 0.215906
17243.17969 0.215832
17244.06055 0.215757
17244.93945 0.215682
17245.83008 0.215618
17246.71094 0.215554
17247.59961 0.21549
17248.48047 0.215426
17249.36914 0.215362
17250.25000 0.2153
17251.13086 0.215242
17252.01953 0.215184
17252.90039 0.215126
17253.78906 0.215069
17254.66992 0.215011
17255.55078 0.214944
17256.43945 0.214871
17257.32031 0.214799
17258.21094 0.214726
17259.08984 0.214653
17259.98047 0.214581
17260.85938 0.214537
17261.75000 0.214494
17262.63086 0.21445
17263.51953 0.214407
17264.40039 0.214364
17265.28906 0.21431
17266.16992 0.214235
17267.06055 0.214161
17267.93945 0.214086
17268.83008 0.214011
17269.71094 0.213935
17270.59961 0.213866
17271.48047 0.213799
17272.36914 0.213732
17273.25977 0.213664
17274.14062 0.213597
17275.02930 0.213531
17275.91016 0.213502
17276.80078 0.213472
17277.67969 0.213443
17278.57031 0.213414
17279.46094 0.213384
17280.33984 0.21334
17281.23047 0.213273
17282.10938 0.213205
17283.00000 0.213137
17283.88086 0.21307
17284.76953 0.213002
17285.66016 0.21295
17286.53906 0.212904
17287.42969 0.212858
17288.31055 0.212812
17289.19922 0.212765
17290.08984 0.212718
17290.97070 0.212653
17291.85938 0.212589
17292.75000 0.212526
17293.63086 0.212462
17294.51953 0.212398
17295.41016 0.212339
17296.28906 0.212287
17297.17969 0.212235
17298.07031 0.212183
17298.94922 0.212131
17299.83984 0.212079
17300.73047 0.212018
17301.60938 0.211955
17302.50000 0.211891
17303.39062 0.211828
17304.27930 0.211765
17305.16016 0.211706
17306.05078 0.211669
17306.93945 0.211631
17307.82031 0.211593
17308.71094 0.211555
17309.59961 0.211517
17310.49023 0.211468
17311.36914 0.21141
17312.25977 0.211352
17313.15039 0.211294
17314.03906 0.211236
17314.91992 0.211178
17315.81055 0.211141
17316.69922 0.211107
17317.58984 0.211072
17318.47070 0.211037
17319.35938 0.211002
17320.25000 0.210964
17321.14062 0.210917
17322.02930 0.21087
17322.91016 0.210823
17323.80078 0.210776
17324.68945 0.210729
17325.58008 0.210683
17326.46094 0.210637
17327.34961 0.210592
17328.24023 0.210546
17329.13086 0.2105
17330.01953 0.210455
17330.91016 0.21043
17331.78906 0.210405
17332.67969 0.21038
17333.57031 0.210355
17334.46094 0.21033
17335.34961 0.210306
17336.24023 0.210284
17337.13086 0.210261
17338.01953 0.210239
17338.90039 0.210217
17339.78906 0.210195
17340.67969 0.210166
17341.57031 0.210135
17342.46094 0.210103
17343.34961 0.210072
17344.24023 0.210041
17345.13086 0.210012
17346.01953 0.209994
17346.91016 0.209976
17347.78906 0.209957
17348.68945 0.209939
17349.57031 0.209921
17350.46094 0.209898
17351.34961 0.209871
17352.24023 0.209843
17353.13086 0.209816
17354.01953 0.209789
17354.91016 0.209761
17355.80078 0.209753
17356.68945 0.209746
17357.58008 0.209739
17358.47070 0.209732
17359.35938 0.209726
17360.25000 0.209722
17361.14062 0.209724
17362.02930 0.209727
17362.91992 0.209729
17363.81055 0.209732
17364.69922 0.209734
17365.58984 0.209721
17366.48047 0.209701
17367.36914 0.20968
17368.25977 0.209659
17369.15039 0.209638
17370.03906 0.209619
17370.92969 0.209626
17371.82031 0.209633
17372.71094 0.209641
17373.60938 0.209648
17374.50000 0.209655
17375.39062 0.209657
17376.27930 0.209651
17377.16992 0.209645
17378.06055 0.209639
17378.94922 0.209632
17379.83984 0.209626
17380.73047 0.209622
17381.61914 0.209619
17382.50977 0.209616
17383.40039 0.209613
17384.28906 0.209609
17385.18945 0.209609
17386.08008 0.209617
17386.97070 0.209626
17387.85938 0.209635
17388.75000 0.209644
17389.64062 0.209652
17390.53906 0.209658
17391.42969 0.209662
17392.32031 0.209666
17393.21094 0.20967
17394.09961 0.209674
17394.99023 0.209678
17395.88086 0.209684
17396.77930 0.20969
17397.66992 0.209695
17398.56055 0.209701
17399.44922 0.209707
17400.33984 0.209724
17401.24023 0.209758
17402.13086 0.209793
17403.01953 0.209828
17403.91016 0.209863
17404.80078 0.209897
17405.69922 0.209915
17406.58984 0.209927
17407.48047 0.20994
17408.36914 0.209953
17409.26953 0.209965
17410.16016 0.209983
17411.05078 0.210024
17411.93945 0.210065
17412.83984 0.210106
17413.73047 0.210147
17414.61914 0.210188
17415.50977 0.210236
17416.41016 0.21029
17417.30078 0.210344
17418.18945 0.210399
17419.08984 0.210453
17419.98047 0.210507
17420.86914 0.210533
17421.75977 0.210558
17422.66016 0.210583
17423.55078 0.210608
17424.43945 0.210633
17425.33984 0.21068
17426.23047 0.210765
17427.11914 0.210849
17428.01953 0.210934
17428.91016 0.211018
17429.80078 0.211103
17430.69922 0.21115
17431.58984 0.211187
17432.48047 0.211224
17433.38086 0.21126
17434.26953 0.211297
17435.16992 0.211338
17436.06055 0.211399
17436.94922 0.211459
17437.84961 0.21152
17438.74023 0.21158
17439.63086 0.211641
17440.52930 0.211718
17441.41992 0.211807
17442.32031 0.211895
17443.21094 0.211984
17444.10938 0.212073
17445.00000 0.212161
17445.89062 0.212213
17446.78906 0.212265
17447.67969 0.212316
17448.58008 0.212368
17449.47070 0.21242
17450.36914 0.212487
17451.25977 0.212577
17452.16016 0.212667
17453.05078 0.212757
17453.94922 0.212847
17454.83984 0.212937
17455.73047 0.213008
17456.63086 0.213076
17457.52930 0.213143
17458.41992 0.21321
17459.31055 0.213278
17460.21094 0.213347
17461.10938 0.21342
17462.00000 0.213493
17462.89062 0.213566
17463.78906 0.21364
17464.68945 0.213713
17465.58008 0.213804
17466.48047 0.213905
17467.36914 0.214006
17468.26953 0.214108
17469.16016 0.214208
17470.06055 0.214309
17470.94922 0.214399
17471.84961 0.21449
17472.74023 0.21458
17473.64062 0.214671
17474.53906 0.214761
17475.42969 0.214839
17476.33008 0.214903
17477.22070 0.214967
17478.11914 0.215031
17479.01953 0.215095
17479.91016 0.215159
17480.81055 0.215278
17481.71094 0.215402
17482.59961 0.215527
17483.50000 0.215651
17484.39062 0.215776
17485.28906 0.215894
17486.18945 0.215998
17487.08008 0.216102
17487.98047 0.216205
17488.86914 0.216309
17489.76953 0.216413
17490.66992 0.216507
17491.56055 0.216599
17492.46094 0.216691
17493.35938 0.216783
17494.25977 0.216874
17495.15039 0.216974
17496.05078 0.217109
17496.94922 0.217245
17497.83984 0.21738
17498.74023 0.217516
17499.64062 0.217652
17500.52930 0.217759
17501.42969 0.217847
17502.33008 0.217935
17503.22070 0.218023
17504.11914 0.218111
17505.01953 0.218199
17505.91992 0.218319
17506.81055 0.218438
17507.71094 0.218557
17508.60938 0.218677
17509.50977 0.218796
17510.40039 0.218918
17511.30078 0.219043
17512.19922 0.219167
17513.09961 0.219291
17514.00000 0.219416
17514.89062 0.21954
17515.78906 0.219676
17516.68945 0.219814
17517.58984 0.219951
17518.49023 0.220089
17519.38086 0.220226
17520.27930 0.220361
17521.17969 0.22049
17522.08008 0.220619
17522.98047 0.220748
17523.88086 0.220877
17524.76953 0.221005
17525.66992 0.221125
17526.57031 0.221241
17527.47070 0.221358
17528.36914 0.221474
17529.26953 0.22159
17530.16016 0.221709
17531.06055 0.221838
17531.96094 0.221967
17532.85938 0.222096
17533.75977 0.222225
17534.66016 0.222354
17535.56055 0.222503
17536.46094 0.222663
17537.35938 0.222824
17538.25000 0.222985
17539.15039 0.223145
17540.05078 0.223305
17540.94922 0.223439
17541.84961 0.223573
17542.75000 0.223707
17543.65039 0.223841
17544.55078 0.223975
17545.44922 0.224115
17546.34961 0.224261
17547.25000 0.224407
17548.15039 0.224553
17549.03906 0.224699
17549.94922 0.224845
17550.84961 0.224988
17551.74023 0.225131
17552.64062 0.225274
17553.53906 0.225417
17554.43945 0.22556
17555.33984 0.225703
17556.24023 0.225847
17557.14062 0.225991
17558.03906 0.226136
17558.93945 0.226279
17559.83984 0.226423
17560.74023 0.226572
17561.64062 0.226721
17562.53906 0.22687
17563.44922 0.227019
17564.34961 0.227168
17565.25000 0.227314
17566.15039 0.227453
17567.05078 0.227591
17567.94922 0.22773
17568.84961 0.227869
17569.75000 0.228007
17570.65039 0.228156
17571.55078 0.228307
17572.44922 0.228459
17573.34961 0.228611
17574.25000 0.228763
17575.15039 0.228917
17576.05078 0.229081
17576.96094 0.229245
17577.85938 0.22941
17578.75977 0.229574
17579.66016 0.229739
17580.56055 0.229896
17581.46094 0.23005
17582.35938 0.230204
17583.25977 0.230357
17584.16992 0.230511
17585.07031 0.230665
17585.97070 0.230818
17586.86914 0.230972
17587.76953 0.231125
17588.66992 0.231279
17589.57031 0.231432
17590.48047 0.231581
17591.38086 0.231728
17592.27930 0.231874
17593.17969 0.23202
17594.08008 0.232166
17594.99023 0.232312
17595.89062 0.232478
17596.78906 0.232644
17597.68945 0.23281
17598.58984 0.232977
17599.50000 0.233143
17600.40039 0.233298
17601.30078 0.233438
17602.19922 0.233578
17603.10938 0.233718
17604.00977 0.233858
17604.91016 0.233998
17605.81055 0.234193
17606.71094 0.234393
17607.61914 0.234594
17608.51953 0.234794
17609.41992 0.234995
17610.33008 0.235185
17611.23047 0.235356
17612.13086 0.235526
17613.03906 0.235697
17613.93945 0.235868
17614.83984 0.236039
17615.74023 0.23621
17616.65039 0.236382
17617.55078 0.236553
17618.44922 0.236725
17619.35938 0.236896
17620.25977 0.237059
17621.16016 0.237202
17622.07031 0.237345
17622.97070 0.237488
17623.86914 0.237631
17624.77930 0.237774
17625.67969 0.237925
17626.58008 0.238078
17627.49023 0.238232
17628.39062 0.238385
17629.28906 0.238539
17630.19922 0.238694
17631.09961 0.238857
17632.00977 0.239019
17632.91016 0.239182
17633.81055 0.239344
17634.72070 0.239506
17635.61914 0.239649
17636.52930 0.239782
17637.42969 0.239915
17638.33008 0.240048
17639.24023 0.240181
17640.14062 0.240316
17641.05078 0.240462
17641.94922 0.240608
17642.85938 0.240753
17643.75977 0.240899
17644.66016 0.241045
17645.57031 0.241191
17646.47070 0.241338
17647.38086 0.241485
17648.27930 0.241632
17649.18945 0.241779
17650.08984 0.241924
17651.00000 0.24205
17651.90039 0.242177
17652.81055 0.242304
17653.71094 0.24243
17654.61914 0.242557
17655.51953 0.242684
17656.42969 0.242811
17657.33008 0.242938
17658.24023 0.243065
17659.14062 0.243193
17660.05078 0.24332
17660.94922 0.243447
17661.85938 0.243573
17662.75977 0.2437
17663.66992 0.243826
17664.57031 0.243953
17665.48047 0.244072
17666.39062 0.244184
17667.28906 0.244296
17668.19922 0.244408
17669.09961 0.24452
17670.00977 0.244632
17670.91016 0.244737
17671.82031 0.244843
17672.73047 0.244948
17673.63086 0.245054
17674.53906 0.24516
17675.44922 0.245263
17676.34961 0.245365
17677.25977 0.245466
17678.16016 0.245567
17679.07031 0.245668
17679.97070 0.245769
17680.88086 0.245843
17681.78906 0.245916
17682.69922 0.245989
17683.59961 0.246062
17684.50977 0.246135
17685.41016 0.246219
17686.32031 0.246318
17687.23047 0.246416
17688.13086 0.246515
17689.03906 0.246613
17689.94922 0.246711
17690.85938 0.246778
17691.75977 0.246843
17692.66992 0.246907
17693.58008 0.246972
17694.48047 0.247037
17695.39062 0.247096
17696.30078 0.247149
17697.19922 0.247202
17698.10938 0.247256
17699.01953 0.247309
17699.92969 0.247362
17700.83008 0.247447
17701.74023 0.247534
17702.65039 0.247622
17703.56055 0.247709
17704.46094 0.247797
17705.36914 0.247854
17706.27930 0.247866
17707.18945 0.247878
17708.08984 0.247891
17709.00000 0.247903
17709.91016 0.247915
17710.82031 0.247932
17711.72070 0.24795
17712.63086 0.247968
17713.53906 0.247986
17714.44922 0.248004
17715.35938 0.248025
17716.26953 0.248051
17717.16992 0.248077
17718.08008 0.248103
17718.99023 0.24813
17719.90039 0.248156
17720.81055 0.248138
17721.71094 0.248115
17722.63086 0.248091
17723.52930 0.248068
17724.43945 0.248045
17725.34961 0.248019
17726.25977 0.247988
17727.16992 0.247957
17728.08008 0.247926
17728.98047 0.247895
17729.89062 0.247864
17730.80078 0.24783
17731.71094 0.247796
17732.61914 0.247762
17733.52930 0.247728
17734.43945 0.247694
17735.34961 0.247643
17736.25977 0.247566
17737.16992 0.247488
17738.08008 0.247411
17738.98047 0.247334
17739.89062 0.247256
17740.80078 0.24718
17741.71094 0.247103
17742.61914 0.247027
17743.52930 0.24695
17744.43945 0.246873
17745.34961 0.246799
17746.25977 0.246726
17747.16992 0.246654
17748.08008 0.246582
17748.99023 0.24651
17749.90039 0.246438
17750.81055 0.246324
17751.72070 0.246206
17752.63086 0.246088
17753.53906 0.24597
17754.44922 0.245851
17755.35938 0.245731
17756.26953 0.245608
17757.17969 0.245485
17758.08984 0.245362
17759.00000 0.24524
17759.91016 0.245117
17760.82031 0.244961
17761.73047 0.244803
17762.64062 0.244644
17763.55078 0.244486
17764.46094 0.244327
17765.38086 0.244159
17766.28906 0.243977
17767.19922 0.243795
17768.10938 0.243613
17769.01953 0.24343
17769.92969 0.243248
17770.83984 0.243113
17771.75000 0.242982
17772.66016 0.24285
17773.57031 0.242719
17774.48047 0.242588
17775.40039 0.242411
17776.31055 0.242175
17777.22070 0.241939
17778.13086 0.241703
17779.03906 0.241468
17779.94922 0.241232
17780.86914 0.241033
17781.77930 0.240836
17782.68945 0.24064
17783.59961 0.240443
17784.50977 0.240246
17785.41992 0.240041
17786.33008 0.239828
17787.25000 0.239614
17788.16016 0.2394
17789.07031 0.239186
17789.98047 0.238972
17790.89062 0.238698
17791.80078 0.238422
17792.72070 0.238146
17793.63086 0.23787
17794.53906 0.237594
17795.46094 0.237314
17796.36914 0.237031
17797.27930 0.236748
17798.18945 0.236465
17799.09961 0.236182
17800.01953 0.235898
17800.92969 0.235569
17801.83984 0.235239
17802.75000 0.23491
17803.66992 0.234581
17804.58008 0.234252
17805.49023 0.233935
17806.40039 0.233629
17807.32031 0.233324
17808.23047 0.233018
17809.14062 0.232713
17810.06055 0.232404
17810.97070 0.23206
17811.88086 0.231715
17812.78906 0.231371
17813.71094 0.231026
17814.61914 0.230681
17815.53906 0.230312
17816.44922 0.229927
17817.35938 0.22954
17818.27930 0.229154
17819.18945 0.228768
17820.09961 0.228382
17821.01953 0.227998
17821.92969 0.227613
17822.83984 0.22723
17823.75977 0.226845
17824.66992 0.22646
17825.58008 0.22604
17826.50000 0.225599
17827.41016 0.225158
17828.33008 0.224717
17829.24023 0.224277
17830.15039 0.223834
17831.07031 0.22338
17831.98047 0.222926
17832.90039 0.222471
17833.81055 0.222017
17834.72070 0.221563
17835.64062 0.221091
17836.55078 0.220611
17837.47070 0.220131
17838.38086 0.21965
17839.28906 0.21917
17840.21094 0.218695
17841.11914 0.218239
17842.03906 0.217783
17842.96094 0.217326
17843.86914 0.21687
17844.77930 0.216415
17845.69922 0.215903
17846.60938 0.215376
17847.52930 0.214849
17848.43945 0.21432
17849.35938 0.213793
17850.26953 0.213268
17851.18945 0.21275
17852.09961 0.212232
17853.01953 0.211714
17853.92969 0.211196
17854.84961 0.210677
17855.75977 0.210141
17856.67969 0.2096
17857.59961 0.209059
17858.50977 0.20852
17859.42969 0.207979
17860.33984 0.207404
17861.25977 0.206775
17862.16992 0.206147
17863.08984 0.205517
17864.00000 0.204887
17864.91992 0.204258
17865.83984 0.20368
17866.75000 0.203107
17867.66992 0.202535
17868.58008 0.201962
17869.50000 0.201389
17870.41992 0.20079
17871.33008 0.20016
17872.25000 0.19953
17873.16016 0.198899
17874.08008 0.198269
17875.00000 0.197638
17875.91016 0.197042
17876.83008 0.196444
17877.75000 0.195847
17878.66016 0.19525
17879.58008 0.194654
17880.50000 0.194032
17881.41016 0.193393
17882.33008 0.192753
17883.25000 0.192112
17884.16016 0.191473
17885.08008 0.190829
17886.00000 0.190141
17886.91016 0.189455
17887.83008 0.188767
17888.75000 0.188081
17889.66016 0.187393
17890.58008 0.186687
17891.50000 0.185969
17892.41992 0.185251
17893.33008 0.184534
17894.25000 0.183815
17895.16992 0.183097
17896.08008 0.182383
17897.00000 0.181668
17897.91992 0.180952
17898.83984 0.180237
17899.75000 0.179521
17900.66992 0.178791
17901.58984 0.178056
17902.50977 0.177321
17903.42969 0.176585
17904.33984 0.17585
17905.25977 0.175124
17906.17969 0.174421
17907.09961 0.173718
17908.01953 0.173015
17908.92969 0.172312
17909.84961 0.171609
17910.76953 0.170896
17911.68945 0.170181
17912.60938 0.169466
17913.51953 0.168751
17914.43945 0.168036
17915.35938 0.167291
17916.27930 0.166495
17917.19922 0.165702
17918.11914 0.164908
17919.03906 0.164113
17919.94922 0.16332
17920.86914 0.162508
17921.78906 0.161694
17922.71094 0.160882
17923.63086 0.160069
17924.55078 0.159255
17925.46094 0.15846
17926.38086 0.157681
17927.30078 0.156904
17928.22070 0.156124
17929.14062 0.155347
17930.06055 0.154567
17930.98047 0.153773
17931.90039 0.152981
17932.82031 0.152187
17933.74023 0.151394
17934.66016 0.150602
17935.58008 0.149818
17936.50000 0.14904
17937.41992 0.148261
17938.33008 0.147485
17939.25000 0.146707
17940.16992 0.145925
17941.08984 0.145127
17942.00977 0.14433
17942.92969 0.143532
17943.84961 0.142734
17944.76953 0.141936
17945.68945 0.14119
17946.60938 0.140461
17947.52930 0.139731
17948.44922 0.139001
17949.36914 0.138272
17950.28906 0.137514
17951.21094 0.136695
17952.13086 0.135876
17953.05078 0.135055
17953.97070 0.134237
17954.89062 0.133417
17955.81055 0.132594
17956.74023 0.131769
17957.66016 0.130945
17958.58008 0.130121
17959.50000 0.129295
17960.41992 0.128484
17961.33984 0.127689
17962.25977 0.126892
17963.17969 0.126097
17964.09961 0.1253
17965.01953 0.124506
17965.93945 0.12375
17966.85938 0.122995
17967.78906 0.122239
17968.71094 0.121483
17969.63086 0.120729
17970.55078 0.119976
17971.47070 0.119226
17972.39062 0.118478
17973.31055 0.117728
17974.23047 0.116978
17975.16016 0.116231
17976.08008 0.115502
17977.00000 0.114772
17977.91992 0.114042
17978.83984 0.113311
17979.75977 0.112581
17980.68945 0.111812
17981.60938 0.11103
17982.52930 0.110248
17983.44922 0.109465
17984.36914 0.108683
17985.28906 0.10791
17986.22070 0.107157
17987.14062 0.106403
17988.06055 0.10565
17988.98047 0.104896
17989.90039 0.104142
17990.83008 0.103385
17991.75000 0.102625
17992.66992 0.101866
17993.58984 0.101108
17994.51953 0.10035
17995.43945 0.099613
17996.35938 0.098903
17997.27930 0.098193
17998.21094 0.097481
17999.13086 0.096771
18000.05078 0.096061
18000.97070 0.09538
18001.90039 0.094699
18002.82031 0.094017
18003.74023 0.093336
18004.66992 0.092654
18005.58984 0.091959
18006.50977 0.091258
18007.43945 0.090555
18008.35938 0.089854
18009.27930 0.089152
18010.21094 0.088454
18011.13086 0.087774
18012.05078 0.087095
18012.97070 0.086415
18013.90039 0.085734
18014.82031 0.085054
18015.74023 0.08439
18016.66992 0.083728
18017.58984 0.083066
18018.51953 0.082404
18019.43945 0.081742
18020.35938 0.081079
18021.28906 0.080415
18022.21094 0.079751
18023.13086 0.079087
18024.06055 0.078423
18024.98047 0.077759
18025.91016 0.077129
18026.83008 0.076499
18027.75977 0.075869
18028.67969 0.075239
18029.59961 0.07461
18030.52930 0.074023
18031.44922 0.073469
18032.38086 0.072914
18033.30078 0.07236
18034.22070 0.071806
18035.15039 0.07125
18036.07031 0.07069
18037.00000 0.07013
18037.91992 0.069569
18038.84961 0.069009
18039.76953 0.068448
18040.69922 0.06789
18041.61914 0.067333
18042.55078 0.066776
18043.47070 0.066218
18044.40039 0.06566
18045.32031 0.065112
18046.25000 0.064579
18047.16992 0.064047
18048.09961 0.063514
18049.01953 0.062981
18049.94922 0.062448
18050.86914 0.06191
18051.80078 0.061371
18052.72070 0.060831
18053.65039 0.060292
18054.58008 0.059753
18055.50000 0.059222
18056.42969 0.058696
18057.34961 0.05817
18058.27930 0.057644
18059.19922 0.057118
18060.13086 0.056597
18061.05078 0.056108
18061.98047 0.055619
18062.91016 0.055131
18063.83008 0.054641
18064.75977 0.054152
18065.68945 0.053694
18066.60938 0.053248
18067.53906 0.052801
18068.46094 0.052354
18069.39062 0.051907
18070.32031 0.051468
18071.24023 0.051045
18072.16992 0.050621
18073.09961 0.050197
18074.01953 0.049774
18074.94922 0.04935
18075.88086 0.048911
18076.80078 0.048471
18077.73047 0.04803
18078.65039 0.047591
18079.58008 0.04715
18080.50977 0.046736
18081.43945 0.046346
18082.35938 0.045955
18083.28906 0.045565
18084.22070 0.045174
18085.14062 0.044781
18086.07031 0.044379
18087.00000 0.043975
18087.92969 0.043572
18088.84961 0.043169
18089.77930 0.042766
18090.71094 0.042389
18091.63086 0.042021
18092.56055 0.041653
18093.49023 0.041286
18094.41992 0.040919
18095.33984 0.040558
18096.26953 0.040208
18097.19922 0.039859
18098.13086 0.039509
18099.05078 0.03916
18099.98047 0.03881
18100.91016 0.038485
18101.83984 0.038162
18102.76953 0.037838
18103.69922 0.037514
18104.61914 0.037191
18105.55078 0.036847
18106.48047 0.03649
18107.41016 0.036133
18108.33984 0.035776
18109.25977 0.035419
18110.18945 0.035074
18111.11914 0.034776
18112.05078 0.034478
18112.98047 0.03418
18113.91016 0.033882
18114.83984 0.033584
18115.75977 0.033258
18116.68945 0.032927
18117.61914 0.032596
18118.55078 0.032264
18119.48047 0.031933
18120.41016 0.031623
18121.33984 0.031342
18122.26953 0.03106
18123.19922 0.030779
18124.11914 0.030498
18125.05078 0.030219
18125.98047 0.029978
18126.91016 0.029738
18127.83984 0.029497
18128.76953 0.029257
18129.69922 0.029016
18130.63086 0.028786
18131.56055 0.02856
18132.49023 0.028334
18133.41992 0.028108
18134.34961 0.027882
18135.27930 0.027647
18136.21094 0.027391
18137.13086 0.027135
18138.06055 0.026879
18139.00000 0.026623
18139.92969 0.026367
18140.85938 0.026142
18141.78906 0.025918
18142.71094 0.025695
18143.64062 0.025472
18144.57031 0.025249
18145.50977 0.025016
18146.43945 0.024776
18147.36914 0.024536
18148.30078 0.024296
18149.23047 0.024056
18150.16016 0.023819
18151.08984 0.023599
18152.01953 0.023378
18152.94922 0.023158
18153.88086 0.022937
18154.81055 0.022717
18155.74023 0.022514
18156.66992 0.022317
18157.59961 0.022119
18158.52930 0.021921
18159.46094 0.021724
18160.39062 0.02154
18161.33008 0.021375
18162.25977 0.021211
18163.18945 0.021046
18164.11914 0.020881
18165.05078 0.020716
18165.98047 0.020531
18166.91016 0.020346
18167.83984 0.020161
18168.77930 0.019976
18169.71094 0.019791
18170.64062 0.019623
18171.57031 0.019465
18172.50000 0.019306
18173.42969 0.019147
18174.35938 0.018988
18175.28906 0.018824
18176.23047 0.018652
18177.16016 0.018478
18178.08984 0.018306
18179.01953 0.018133
18179.96094 0.01796
18180.89062 0.017805
18181.82031 0.017651
18182.75000 0.017496
18183.67969 0.017342
18184.61914 0.017188
18185.55078 0.017046
18186.48047 0.016913
18187.41016 0.01678
18188.33984 0.016646
18189.27930 0.016513
18190.21094 0.016376
18191.14062 0.016226
18192.07031 0.016077
18193.00977 0.015927
18193.93945 0.015778
18194.86914 0.015628
18195.80078 0.015503
18196.74023 0.015382
18197.66992 0.015261
18198.59961 0.01514
18199.53906 0.015019
18200.47070 0.014887
18201.40039 0.014745
18202.33984 0.014602
18203.26953 0.01446
18204.19922 0.014317
18205.13086 0.014178
18206.07031 0.014054
18207.00000 0.01393
18207.93945 0.013807
18208.86914 0.013683
18209.80078 0.01356
18210.74023 0.013419
18211.66992 0.013273
18212.59961 0.013128
18213.53906 0.012982
18214.47070 0.012837
18215.40039 0.012708
18216.33984 0.012601
18217.26953 0.012494
18218.21094 0.012387
18219.14062 0.01228
18220.07031 0.012174
18221.00977 0.012077
18221.93945 0.01198
18222.86914 0.011883
18223.81055 0.011786
18224.74023 0.011689
18225.67969 0.011592
18226.60938 0.011495
18227.55078 0.011398
18228.48047 0.011301
18229.41992 0.011204
18230.34961 0.011113
18231.28906 0.011034
18232.22070 0.010955
18233.15039 0.010876
18234.08984 0.010797
18235.01953 0.010718
18235.96094 0.010636
18236.89062 0.010555
18237.83008 0.010473
18238.75977 0.010391
18239.69922 0.01031
18240.63086 0.010225
18241.57031 0.01014
18242.50000 0.010054
18243.43945 0.009969
18244.36914 0.009884
18245.31055 0.009799
18246.24023 0.009716
18247.17969 0.009633
18248.11914 0.00955
18249.05078 0.009467
18249.99023 0.009384
18250.91992 0.009333
18251.85938 0.009282
18252.78906 0.009231
18253.73047 0.00918
18254.66016 0.009129
18255.59961 0.009056
18256.53906 0.008971
18257.47070 0.008886
18258.41016 0.008801
18259.33984 0.008716
18260.27930 0.008635
18261.22070 0.00856
18262.15039 0.008486
18263.08984 0.008412
18264.02930 0.008337
18264.96094 0.008263
18265.90039 0.008175
18266.83008 0.008086
18267.76953 0.007998
18268.71094 0.007909
18269.64062 0.007821
18270.58008 0.007767
18271.51953 0.007733
18272.44922 0.0077
18273.39062 0.007666
18274.33008 0.007633
18275.25977 0.007588
18276.19922 0.007513
18277.14062 0.007439
18278.07031 0.007364
18279.00977 0.007289
18279.94922 0.007215
18280.88086 0.007182
18281.82031 0.007152
18282.75977 0.007122
18283.69922 0.007092
18284.63086 0.007062
18285.57031 0.007005
18286.50977 0.006931
18287.44922 0.006857
18288.38086 0.006783
18289.32031 0.006709
18290.25977 0.006644
18291.19922 0.006604
18292.13086 0.006564
18293.07031 0.006524
18294.00977 0.006484
18294.94922 0.006444
18295.88086 0.006395
18296.82031 0.006346
18297.75977 0.006297
18298.69922 0.006248
18299.64062 0.006199
18300.58008 0.006149
18301.50977 0.0061
18302.44922 0.006051
18303.39062 0.006001
18304.33008 0.005952
18305.26953 0.0059
18306.21094 0.00584
18307.14062 0.00578
18308.08008 0.00572
18309.01953 0.00566
18309.96094 0.0056
18310.90039 0.005551
18311.83984 0.005501
18312.77930 0.005452
18313.71094 0.005403
18314.65039 0.005354
18315.58984 0.005313
18316.52930 0.005278
18317.47070 0.005243
18318.41016 0.005207
18319.34961 0.005172
18320.28906 0.005139
18321.23047 0.005111
18322.16992 0.005082
18323.10938 0.005054
18324.03906 0.005026
18324.98047 0.004998
18325.91992 0.004992
18326.85938 0.004987
18327.80078 0.004982
18328.74023 0.004977
18329.67969 0.004972
18330.61914 0.004928
18331.56055 0.004863
18332.50000 0.004799
18333.43945 0.004735
18334.38086 0.00467
18335.32031 0.00462
18336.25977 0.004599
18337.19922 0.004578
18338.14062 0.004556
18339.08008 0.004535
18340.01953 0.004514
18340.96094 0.004506
18341.90039 0.004498
18342.83984 0.00449
18343.77930 0.004482
18344.72070 0.004475
18345.66016 0.00443
18346.59961 0.004369
18347.53906 0.004309
18348.48047 0.004249
18349.41992 0.004188
18350.36914 0.004141
18351.30078 0.004116
18352.25000 0.00409
18353.18945 0.004064
18354.13086 0.004039
18355.07031 0.004012
18356.00977 0.003969
18356.94922 0.003925
18357.89062 0.003882
18358.83008 0.003838
18359.76953 0.003794
18360.71094 0.003771
18361.66016 0.003755
18362.59961 0.003738
18363.53906 0.003722
18364.48047 0.003705
18365.41992 0.003684
18366.35938 0.003657
18367.30078 0.00363
18368.25000 0.003602
18369.18945 0.003575
18370.13086 0.003549
18371.07031 0.00353
18372.00977 0.003511
18372.96094 0.003493
18373.90039 0.003474
18374.83984 0.003455
18375.77930 0.003439
18376.72070 0.003425
18377.66016 0.00341
18378.60938 0.003396
18379.55078 0.003381
18380.49023 0.003359
18381.42969 0.003331
18382.38086 0.003302
18383.32031 0.003274
18384.25977 0.003245
18385.19922 0.003219
18386.14062 0.003197
18387.08984 0.003176
18388.02930 0.003155
18388.97070 0.003134
18389.91992 0.003113
18390.85938 0.0031
18391.80078 0.003089
18392.74023 0.003077
18393.68945 0.003066
18394.63086 0.003054
18395.57031 0.003028
18396.51953 0.002993
18397.46094 0.002957
18398.40039 0.002922
18399.34961 0.002886
18400.28906 0.002853
18401.23047 0.002826
18402.17969 0.002799
18403.11914 0.002772
18404.06055 0.002744
18405.00977 0.002717
18405.94922 0.002717
18406.89062 0.002716
18407.83984 0.002716
18408.77930 0.002715
18409.72070 0.002714
18410.66992 0.002704
18411.60938 0.00269
18412.55078 0.002676
18413.50000 0.002661
18414.43945 0.002647
18415.39062 0.002628
18416.33008 0.002601
18417.27930 0.002574
18418.22070 0.002547
18419.16016 0.00252
18420.10938 0.002494
18421.05078 0.002469
18422.00000 0.002444
18422.93945 0.002419
18423.88086 0.002394
18424.83008 0.002369
18425.76953 0.002355
18426.72070 0.002343
18427.66016 0.002331
18428.60938 0.002319
18429.55078 0.002306
18430.50000 0.002302
18431.43945 0.002306
18432.39062 0.002309
18433.33008 0.002312
18434.27930 0.002315
18435.22070 0.002311
18436.16992 0.002285
18437.10938 0.002259
18438.06055 0.002233
18439.00000 0.002207
18439.94922 0.00218
18440.89062 0.002177
18441.83984 0.002176
18442.77930 0.002174
18443.73047 0.002172
18444.67969 0.00217
18445.61914 0.002162
18446.57031 0.00215
18447.50977 0.002139
18448.46094 0.002127
18449.40039 0.002115
18450.34961 0.002105
18451.28906 0.002098
18452.24023 0.00209
18453.18945 0.002083
18454.13086 0.002075
18455.08008 0.002068
18456.02930 0.002059
18456.97070 0.002049
18457.91992 0.00204
18458.85938 0.002031
18459.81055 0.002022
18460.75977 0.001997
18461.69922 0.001968
18462.65039 0.001939
18463.59961 0.00191
18464.53906 0.001881
18465.49023 0.001864
18466.43945 0.001858
18467.38086 0.001852
18468.33008 0.001845
18469.27930 0.001839
18470.22070 0.00183
18471.16992 0.001813
18472.11914 0.001797
18473.06055 0.00178
18474.00977 0.001763
18474.96094 0.001746
18475.90039 0.001721
18476.84961 0.001696
18477.80078 0.001671
18478.75000 0.001645
18479.68945 0.00162
18480.64062 0.001619
18481.58984 0.00163
18482.53906 0.001641
18483.48047 0.001652
18484.42969 0.001663
18485.38086 0.001667
18486.32031 0.00166
18487.26953 0.001653
18488.22070 0.001646
18489.16992 0.001638
18490.11914 0.00163
18491.06055 0.001612
18492.00977 0.001593
18492.96094 0.001575
18493.91016 0.001556
18494.85938 0.001538
18495.80078 0.001528
18496.75000 0.001521
18497.69922 0.001513
18498.65039 0.001506
18499.59961 0.001498
18500.53906 0.001494
18501.49023 0.001491
18502.43945 0.001489
18503.39062 0.001486
18504.33984 0.001484
18505.28906 0.001476
18506.24023 0.001458
18507.18945 0.001439
18508.13086 0.00142
18509.08008 0.001402
18510.02930 0.001383
18510.98047 0.001376
18511.92969 0.001369
18512.88086 0.001361
18513.83008 0.001354
18514.77930 0.001347
18515.73047 0.001338
18516.67969 0.00133
18517.63086 0.001321
18518.57031 0.001313
18519.51953 0.001304
18520.47070 0.001301
18521.41992 0.001301
18522.36914 0.001302
18523.32031 0.001302
18524.26953 0.001303
18525.22070 0.001306
18526.16992 0.001318
18527.11914 0.00133
18528.07031 0.001342
18529.01953 0.001354
18529.97070 0.001366
18530.91992 0.001326
18531.86914 0.001284
18532.82031 0.001242
18533.76953 0.0012
18534.72070 0.001158
18535.66992 0.001151
18536.61914 0.001159
18537.57031 0.001167
18538.51953 0.001175
18539.47070 0.001183
18540.41992 0.001187
18541.36914 0.001184
18542.32031 0.001181
18543.26953 0.001178
18544.22070 0.001175
18545.16992 0.001172
18546.11914 0.001172
18547.07031 0.001172
18548.02930 0.001171
18548.98047 0.001171
18549.92969 0.00117
18550.88086 0.001154
18551.83008 0.001137
18552.77930 0.00112
18553.73047 0.001103
18554.67969 0.001086
18555.63086 0.00109
18556.58984 0.001103
18557.53906 0.001116
18558.49023 0.001129
18559.43945 0.001143
18560.39062 0.001149
18561.33984 0.001146
18562.28906 0.001143
18563.24023 0.00114
18564.19922 0.001137
18565.15039 0.001132
18566.09961 0.001117
18567.05078 0.001101
18568.00000 0.001086
18568.96094 0.00107
18569.91016 0.001055
18570.85938 0.001048
18571.81055 0.001043
18572.75977 0.001037
18573.71094 0.001032
18574.66992 0.001026
18575.61914 0.001024
18576.57031 0.001025
18577.52930 0.001025
18578.48047 0.001025
18579.42969 0.001026
18580.38086 0.001024
18581.33008 0.001018
18582.28906 0.001013
18583.24023 0.001007
18584.18945 0.001002
18585.14062 0.000995
18586.09961 0.000978
18587.05078 0.000962
18588.00000 0.000946
18588.96094 0.000929
18589.91016 0.000913
18590.85938 0.000911
18591.81055 0.000912
18592.76953 0.000912
18593.72070 0.000912
18594.66992 0.000912
18595.63086 0.000911
18596.58008 0.000909
18597.53906 0.000908
18598.49023 0.000906
18599.43945 0.000904
18600.39062 0.000894
18601.34961 0.000869
18602.30078 0.000845
18603.25977 0.000821
18604.21094 0.000797
18605.16016 0.00078
18606.11914 0.0008
18607.07031 0.000819
18608.01953 0.000839
18608.98047 0.000858
18609.92969 0.000877
18610.89062 0.000873
18611.83984 0.000866
18612.78906 0.00086
18613.75000 0.000853
18614.69922 0.000847
18615.66016 0.000843
18616.60938 0.000841
18617.57031 0.000838
18618.51953 0.000836
18619.47070 0.000833
18620.42969 0.00082
18621.38086 0.000793
18622.33984 0.000766
18623.28906 0.000739
18624.25000 0.000713
18625.19922 0.000691
18626.16016 0.000689
18627.10938 0.000688
18628.07031 0.000686
18629.01953 0.000684
18629.98047 0.000682
18630.92969 0.000665
18631.89062 0.000647
18632.83984 0.000629
18633.80078 0.000611
18634.75000 0.000593
18635.71094 0.000599
18636.66016 0.000613
18637.61914 0.000627
18638.57031 0.000641
18639.52930 0.000655
18640.48047 0.000668
18641.43945 0.00068
18642.40039 0.000692
18643.34961 0.000704
18644.31055 0.000717
18645.25977 0.000725
18646.22070 0.000722
18647.17969 0.000719
18648.13086 0.000716
18649.08984 0.000713
18650.03906 0.000711
18651.00000 0.000712
18651.96094 0.000713
18652.91016 0.000714
18653.86914 0.000715
18654.82031 0.000716
18655.77930 0.000722
18656.74023 0.000727
18657.68945 0.000733
18658.65039 0.000739
18659.60938 0.000745
18660.56055 0.000736
18661.51953 0.000715
18662.48047 0.000694
18663.42969 0.000674
18664.39062 0.000653
18665.34961 0.000643
18666.30078 0.00065
18667.25977 0.000658
18668.22070 0.000665
18669.16992 0.000672
18670.13086 0.000678
18671.08984 0.000672
18672.03906 0.000666
18673.00000 0.00066
18673.96094 0.000654
18674.91992 0.000648
18675.88086 0.000625
18676.83008 0.000601
18677.78906 0.000577
18678.75000 0.000552
18679.71094 0.000528
18680.66016 0.00051
18681.61914 0.000496
18682.58008 0.000481
18683.53906 0.000467
18684.49023 0.000452
18685.44922 0.000448
18686.41016 0.000456
18687.36914 0.000464
18688.32031 0.000471
18689.27930 0.000479
18690.24023 0.000483
18691.19922 0.000477
18692.16016 0.000471
18693.11914 0.000465
18694.07031 0.000459
18695.02930 0.000454
18695.99023 0.000482
18696.94922 0.00051
18697.91016 0.000537
18698.86914 0.000565
18699.82031 0.000593
18700.77930 0.000589
18701.74023 0.000578
18702.69922 0.000567
18703.66016 0.000556
18704.61914 0.000545
18705.58008 0.000526
18706.53906 0.000502
18707.49023 0.000478
18708.44922 0.000455
18709.41016 0.000431
18710.36914 0.000431
18711.33008 0.000467
18712.28906 0.000504
18713.25000 0.000541
18714.21094 0.000578
18715.16992 0.000604
18716.13086 0.000578
18717.08984 0.000553
18718.05078 0.000527
18719.00977 0.000502
18719.96094 0.000476
18720.92969 0.000541
18721.88086 0.000609
18722.84961 0.000677
18723.80078 0.000744
18724.75977 0.000812
18725.72070 0.000757
18726.67969 0.000662
18727.64062 0.000566
18728.59961 0.00047
20601.45898 0.0
