# %ECSV 0.9
# ---
# datatype:
# - {name: wavelength, unit: Angstrom, datatype: float32}
# - {name: response, datatype: float32}
# meta: !!omap
# - {band_name: F160W}
# - {group_name: NICMOS1}
wavelength response
12169.30469 0.0
13521.45020 0.000405
13522.13965 0.000412
13522.83008 0.000418
13523.53027 0.000425
13524.21973 0.000432
13524.91992 0.000439
13525.61035 0.000446
13526.29980 0.000452
13527.00000 0.000459
13527.69043 0.000466
13528.37988 0.000473
13529.08008 0.000479
13529.76953 0.000486
13530.45996 0.000493
13531.16016 0.000499
13531.84961 0.000505
13532.54004 0.000511
13533.24023 0.000517
13533.92969 0.000523
13534.62988 0.000529
13535.32031 0.000535
13536.00977 0.000541
13536.70996 0.000547
13537.40039 0.000553
13538.08984 0.000559
13538.79004 0.000566
13539.48047 0.000572
13540.17969 0.000577
13540.87012 0.00058
13541.55957 0.000583
13542.25977 0.000586
13542.95020 0.000588
13543.65039 0.000591
13544.33984 0.000594
13545.04004 0.000597
13545.73047 0.000606
13546.41992 0.000615
13547.12012 0.000625
13547.80957 0.000634
13548.50977 0.000643
13549.20020 0.000652
13549.90039 0.000661
13550.58984 0.000667
13551.29004 0.000673
13551.98047 0.000678
13552.67969 0.000683
13553.37012 0.000689
13554.07031 0.000694
13554.75977 0.0007
13555.45996 0.000707
13556.15039 0.000716
13556.84961 0.000725
13557.54004 0.000734
13558.24023 0.000743
13558.92969 0.000752
13559.62988 0.000761
13560.32031 0.000771
13561.01953 0.000782
13561.70996 0.000793
13562.41016 0.000804
13563.09961 0.000814
13563.79980 0.000825
13564.49023 0.000836
13565.19043 0.000846
13565.87988 0.000854
13566.58008 0.000862
13567.26953 0.00087
13567.96973 0.000877
13568.66992 0.000885
13569.36035 0.000893
13570.05957 0.000901
13570.75000 0.00091
13571.45020 0.000918
13572.13965 0.000927
13572.83984 0.000936
13573.54004 0.000944
13574.23047 0.000953
13574.92969 0.000962
13575.62012 0.000972
13576.32031 0.000982
13577.00977 0.000993
13577.70996 0.001003
13578.41016 0.001014
13579.09961 0.001025
13579.79980 0.001035
13580.50000 0.001047
13581.19043 0.00106
13581.88965 0.001072
13582.58008 0.001085
13583.28027 0.001098
13583.98047 0.00111
13584.66992 0.001123
13585.37012 0.001136
13586.07031 0.00115
13586.75977 0.001164
13587.45996 0.001178
13588.15039 0.001192
13588.84961 0.001206
13589.54980 0.00122
13590.24023 0.001232
13590.94043 0.001241
13591.63965 0.00125
13592.33008 0.001259
13593.03027 0.001268
13593.73047 0.001277
13594.41992 0.001286
13595.12012 0.001296
13595.82031 0.001312
13596.51953 0.001329
13597.20996 0.001345
13597.91016 0.001362
13598.61035 0.001378
13599.29980 0.001395
13600.00000 0.001411
13600.70020 0.001427
13601.40039 0.001443
13602.08984 0.001459
13602.79004 0.001476
13603.49023 0.001492
13604.19043 0.001508
13604.87988 0.001524
13605.58008 0.001542
13606.28027 0.001561
13606.96973 0.00158
13607.66992 0.001599
13608.37012 0.001617
13609.07031 0.001636
13609.76953 0.001655
13610.45996 0.001673
13611.16016 0.001691
13611.86035 0.001708
13612.55957 0.001726
13613.25000 0.001744
13613.95020 0.001762
13614.65039 0.001779
13615.34961 0.0018
13616.04980 0.001824
13616.74023 0.001847
13617.44043 0.001871
13618.13965 0.001895
13618.83984 0.001918
13619.54004 0.001942
13620.23047 0.001964
13620.92969 0.001982
13621.62988 0.002001
13622.33008 0.002019
13623.03027 0.002037
13623.73047 0.002056
13624.41992 0.002074
13625.12012 0.002094
13625.82031 0.002117
13626.51953 0.002141
13627.21973 0.002164
13627.91992 0.002188
13628.62012 0.002211
13629.30957 0.002235
13630.00977 0.002258
13630.70996 0.002279
13631.41016 0.002299
13632.11035 0.00232
13632.80957 0.00234
13633.50977 0.00236
13634.20996 0.002381
13634.91016 0.002401
13635.59961 0.002427
13636.29980 0.002453
13637.00000 0.002479
13637.70020 0.002506
13638.40039 0.002532
13639.09961 0.002559
13639.79980 0.002585
13640.50000 0.002613
13641.20020 0.002641
13641.90039 0.002669
13642.59961 0.002698
13643.29004 0.002726
13643.99023 0.002754
13644.69043 0.002783
13645.38965 0.002813
13646.08984 0.002845
13646.79004 0.002878
13647.49023 0.00291
13648.19043 0.002943
13648.88965 0.002975
13649.58984 0.003007
13650.29004 0.003038
13650.99023 0.003066
13651.69043 0.003094
13652.38965 0.003123
13653.08984 0.003151
13653.79004 0.003179
13654.49023 0.003207
13655.19043 0.003236
13655.88965 0.003268
13656.58984 0.0033
13657.29004 0.003331
13657.99023 0.003363
13658.69043 0.003395
13659.38965 0.003426
13660.08984 0.003458
13660.79004 0.003486
13661.49023 0.003514
13662.19043 0.003543
13662.88965 0.003571
13663.58984 0.003599
13664.29004 0.003628
13664.99023 0.003656
13665.69043 0.00369
13666.38965 0.003725
13667.08984 0.003759
13667.79980 0.003794
13668.50000 0.003829
13669.20020 0.003863
13669.90039 0.003898
13670.59961 0.003932
13671.29980 0.003967
13672.00000 0.004002
13672.70020 0.004037
13673.40039 0.004072
13674.09961 0.004106
13674.79980 0.004141
13675.50000 0.004174
13676.20996 0.004206
13676.91016 0.004238
13677.61035 0.00427
13678.30957 0.004302
13679.00977 0.004334
13679.70996 0.004366
13680.41016 0.004405
13681.11035 0.004449
13681.82031 0.004492
13682.51953 0.004535
13683.21973 0.004579
13683.91992 0.004622
13684.62012 0.004666
13685.32031 0.004707
13686.01953 0.004746
13686.73047 0.004785
13687.42969 0.004824
13688.12988 0.004863
13688.83008 0.004902
13689.53027 0.004941
13690.24023 0.00498
13690.94043 0.005018
13691.63965 0.005056
13692.33984 0.005094
13693.04004 0.005132
13693.74023 0.00517
13694.45020 0.005208
13695.15039 0.005246
13695.84961 0.005284
13696.54980 0.005323
13697.25000 0.005361
13697.95996 0.0054
13698.66016 0.005438
13699.36035 0.005477
13700.05957 0.005515
13700.76953 0.005556
13701.46973 0.005597
13702.16992 0.005638
13702.87012 0.005679
13703.58008 0.00572
13704.28027 0.005761
13704.98047 0.005802
13705.67969 0.005843
13706.38965 0.005884
13707.08984 0.005925
13707.79004 0.005966
13708.49023 0.006007
13709.20020 0.006048
13709.90039 0.006089
13710.59961 0.006132
13711.29980 0.006176
13712.00977 0.006219
13712.70996 0.006262
13713.41016 0.006306
13714.12012 0.006349
13714.82031 0.006392
13715.51953 0.006435
13716.23047 0.006477
13716.92969 0.00652
13717.62988 0.006562
13718.33984 0.006604
13719.04004 0.006647
13719.74023 0.006689
13720.45020 0.006734
13721.15039 0.00678
13721.84961 0.006826
13722.55957 0.006872
13723.25977 0.006918
13723.95996 0.006964
13724.66992 0.00701
13725.37012 0.007052
13726.07031 0.00709
13726.78027 0.007129
13727.48047 0.007167
13728.17969 0.007205
13728.88965 0.007243
13729.58984 0.007282
13730.29980 0.007323
13731.00000 0.00737
13731.70020 0.007416
13732.41016 0.007463
13733.11035 0.007509
13733.82031 0.007556
13734.51953 0.007603
13735.21973 0.007648
13735.92969 0.007691
13736.62988 0.007733
13737.33984 0.007776
13738.04004 0.007819
13738.75000 0.007862
13739.45020 0.007904
13740.15039 0.007948
13740.86035 0.007994
13741.55957 0.008041
13742.26953 0.008087
13742.96973 0.008133
13743.67969 0.00818
13744.37988 0.008226
13745.08008 0.008274
13745.79004 0.00833
13746.49023 0.008387
13747.20020 0.008444
13747.90039 0.008501
13748.61035 0.008558
13749.30957 0.008614
13750.01953 0.008671
13750.71973 0.008719
13751.42969 0.008767
13752.12988 0.008815
13752.83984 0.008863
13753.54004 0.008911
13754.25000 0.008959
13754.95020 0.009007
13755.66016 0.009056
13756.36035 0.009104
13757.07031 0.009152
13757.76953 0.0092
13758.48047 0.009248
13759.17969 0.009296
13759.88965 0.009344
13760.58984 0.0094
13761.29980 0.009457
13762.00977 0.009514
13762.70996 0.009571
13763.41992 0.009628
13764.12012 0.009685
13764.83008 0.009742
13765.53027 0.009796
13766.24023 0.009849
13766.95020 0.009903
13767.65039 0.009956
13768.36035 0.010009
13769.05957 0.010062
13769.76953 0.010115
13770.46973 0.010174
13771.17969 0.010237
13771.88965 0.010299
13772.58984 0.010362
13773.29980 0.010424
13774.00000 0.010487
13774.70996 0.01055
13775.41992 0.010612
13776.12012 0.010673
13776.83008 0.010734
13777.54004 0.010795
13778.24023 0.010857
13778.95020 0.010918
13779.65039 0.010979
13780.36035 0.011044
13781.07031 0.011111
13781.76953 0.011178
13782.48047 0.011245
13783.19043 0.011312
13783.88965 0.011379
13784.59961 0.011446
13785.30957 0.011514
13786.00977 0.011584
13786.71973 0.011654
13787.42969 0.011724
13788.12988 0.011795
13788.83984 0.011865
13789.54980 0.011935
13790.25000 0.012005
13790.95996 0.012076
13791.66992 0.012147
13792.37012 0.012218
13793.08008 0.012289
13793.79004 0.012361
13794.50000 0.012432
13795.20020 0.012505
13795.91016 0.012586
13796.62012 0.012666
13797.33008 0.012747
13798.03027 0.012827
13798.74023 0.012908
13799.45020 0.012988
13800.15039 0.013069
13800.86035 0.013153
13801.57031 0.013237
13802.28027 0.01332
13802.98047 0.013404
13803.69043 0.013488
13804.40039 0.013571
13805.11035 0.013657
13805.82031 0.01375
13806.51953 0.013843
13807.23047 0.013936
13807.94043 0.014029
13808.65039 0.014122
13809.34961 0.014215
13810.05957 0.01431
13810.76953 0.014417
13811.48047 0.014524
13812.19043 0.014632
13812.88965 0.014739
13813.59961 0.014846
13814.30957 0.014954
13815.01953 0.015062
13815.73047 0.015177
13816.44043 0.015293
13817.13965 0.015408
13817.84961 0.015524
13818.55957 0.015639
13819.26953 0.015755
13819.98047 0.01587
13820.69043 0.015984
13821.38965 0.016098
13822.09961 0.016212
13822.80957 0.016326
13823.51953 0.016439
13824.23047 0.016553
13824.94043 0.016667
13825.65039 0.016785
13826.34961 0.016903
13827.05957 0.017021
13827.76953 0.017139
13828.48047 0.017257
13829.19043 0.017375
13829.90039 0.017494
13830.61035 0.017625
13831.32031 0.017759
13832.03027 0.017892
13832.74023 0.018026
13833.44043 0.01816
13834.15039 0.018293
13834.86035 0.018427
13835.57031 0.018574
13836.28027 0.018724
13836.99023 0.018874
13837.70020 0.019023
13838.41016 0.019174
13839.12012 0.019323
13839.83008 0.019474
13840.54004 0.019626
13841.25000 0.01978
13841.95996 0.019933
13842.66992 0.020087
13843.37988 0.020241
13844.08008 0.020394
13844.79004 0.020548
13845.50000 0.020715
13846.20996 0.020886
13846.91992 0.021057
13847.62988 0.021228
13848.33984 0.0214
13849.04980 0.021571
13849.75977 0.021742
13850.46973 0.021916
13851.17969 0.02209
13851.88965 0.022264
13852.59961 0.022439
13853.30957 0.022613
13854.01953 0.022787
13854.73047 0.022962
13855.45020 0.023141
13856.16016 0.023323
13856.87012 0.023505
13857.58008 0.023687
13858.29004 0.023869
13859.00000 0.024052
13859.70996 0.024234
13860.41992 0.024427
13861.12988 0.024629
13861.83984 0.024831
13862.54980 0.025033
13863.25977 0.025234
13863.96973 0.025436
13864.67969 0.025638
13865.38965 0.025857
13866.09961 0.026089
13866.80957 0.026321
13867.51953 0.026554
13868.24023 0.026786
13868.95020 0.027019
13869.66016 0.027251
13870.37012 0.027501
13871.08008 0.027767
13871.79004 0.028033
13872.50000 0.028299
13873.20996 0.028566
13873.91992 0.028832
13874.63965 0.029098
13875.34961 0.029377
13876.05957 0.02967
13876.76953 0.029963
13877.48047 0.030255
13878.19043 0.030548
13878.90039 0.030841
13879.62012 0.031134
13880.33008 0.031429
13881.04004 0.031727
13881.75000 0.032026
13882.45996 0.032324
13883.16992 0.032623
13883.87988 0.032921
13884.59961 0.03322
13885.30957 0.033528
13886.01953 0.033847
13886.73047 0.034166
13887.44043 0.034486
13888.16016 0.034805
13888.87012 0.035125
13889.58008 0.035445
13890.29004 0.035766
13891.00000 0.03609
13891.71973 0.036413
13892.42969 0.036737
13893.13965 0.037061
13893.84961 0.037385
13894.55957 0.037708
13895.28027 0.038037
13895.99023 0.038371
13896.70020 0.038705
13897.41016 0.039039
13898.12988 0.039374
13898.83984 0.039708
13899.54980 0.040043
13900.25977 0.040397
13900.98047 0.040784
13901.69043 0.041171
13902.40039 0.041559
13903.11035 0.041946
13903.83008 0.042333
13904.54004 0.042721
13905.25000 0.043138
13905.96973 0.043607
13906.67969 0.044076
13907.38965 0.044545
13908.09961 0.045014
13908.82031 0.045483
13909.53027 0.045953
13910.24023 0.046423
13910.95996 0.046895
13911.66992 0.047366
13912.37988 0.047837
13913.09961 0.048308
13913.80957 0.048781
13914.51953 0.049252
13915.24023 0.049736
13915.95020 0.050243
13916.66016 0.050751
13917.37988 0.051258
13918.08984 0.051766
13918.79980 0.052273
13919.51953 0.052782
13920.23047 0.053294
13920.94043 0.053814
13921.66016 0.054335
13922.37012 0.054855
13923.08008 0.055376
13923.79980 0.055898
13924.50977 0.056419
13925.23047 0.056949
13925.94043 0.057499
13926.65039 0.058049
13927.37012 0.0586
13928.08008 0.05915
13928.79980 0.059701
13929.50977 0.060251
13930.21973 0.060811
13930.94043 0.061389
13931.65039 0.061967
13932.37012 0.062545
13933.08008 0.063124
13933.79004 0.063702
13934.50977 0.064281
13935.21973 0.064873
13935.94043 0.065496
13936.65039 0.066118
13937.37012 0.066741
13938.08008 0.067363
13938.79980 0.067986
13939.50977 0.06861
13940.21973 0.069246
13940.94043 0.069915
13941.65039 0.070583
13942.37012 0.071251
13943.08008 0.07192
13943.79980 0.072589
13944.50977 0.073258
13945.23047 0.073933
13945.94043 0.074623
13946.66016 0.075313
13947.37012 0.076003
13948.08984 0.076694
13948.79980 0.077384
13949.51953 0.078075
13950.23047 0.078782
13950.95020 0.079519
13951.66016 0.080258
13952.37988 0.080996
13953.08984 0.081735
13953.80957 0.082474
13954.51953 0.083213
13955.24023 0.083951
13955.95996 0.084684
13956.66992 0.085419
13957.38965 0.086154
13958.09961 0.086888
13958.82031 0.087623
13959.53027 0.088358
13960.25000 0.089103
13960.95996 0.089867
13961.67969 0.090631
13962.40039 0.091396
13963.11035 0.09216
13963.83008 0.092925
13964.54004 0.09369
13965.25977 0.094433
13965.96973 0.095135
13966.69043 0.095837
13967.41016 0.09654
13968.12012 0.097242
13968.83984 0.097945
13969.54980 0.098648
13970.26953 0.099353
13970.99023 0.100059
13971.70020 0.100766
13972.41992 0.101474
13973.13965 0.102181
13973.84961 0.102889
13974.57031 0.103597
13975.29004 0.104275
13976.00000 0.104907
13976.71973 0.105538
13977.42969 0.106171
13978.15039 0.106803
13978.87012 0.107436
13979.58008 0.108068
13980.29980 0.108684
13981.01953 0.109276
13981.73047 0.109868
13982.45020 0.11046
13983.16992 0.111052
13983.87988 0.111645
13984.59961 0.112238
13985.32031 0.112836
13986.04004 0.113443
13986.75000 0.11405
13987.46973 0.114656
13988.19043 0.115263
13988.90039 0.11587
13989.62012 0.116477
13990.33984 0.11709
13991.04980 0.117711
13991.76953 0.118332
13992.49023 0.118952
13993.20996 0.119574
13993.91992 0.120195
13994.63965 0.120816
13995.36035 0.121424
13996.08008 0.122017
13996.79004 0.122611
13997.50977 0.123205
13998.23047 0.123799
13998.95020 0.124394
13999.66016 0.124987
14000.37988 0.125551
14001.09961 0.126089
14001.82031 0.126626
14002.54004 0.127164
14003.25000 0.127701
14003.96973 0.128239
14004.69043 0.128777
14005.41016 0.129253
14006.12012 0.12968
14006.83984 0.130107
14007.55957 0.130534
14008.28027 0.130962
14009.00000 0.131389
14009.70996 0.131817
14010.42969 0.132196
14011.15039 0.132542
14011.87012 0.132889
14012.58984 0.133235
14013.30957 0.133582
14014.03027 0.133929
14014.74023 0.134275
14015.45996 0.134576
14016.17969 0.134853
14016.90039 0.135129
14017.62012 0.135405
14018.33984 0.135681
14019.04980 0.135958
14019.76953 0.136234
14020.49023 0.136479
14021.20996 0.136708
14021.92969 0.136938
14022.65039 0.137168
14023.37012 0.137398
14024.08984 0.137627
14024.79980 0.137857
14025.51953 0.13804
14026.24023 0.138205
14026.95996 0.13837
14027.67969 0.138535
14028.40039 0.1387
14029.12012 0.138865
14029.83984 0.13903
14030.55957 0.139166
14031.28027 0.139294
14032.00000 0.139422
14032.71973 0.139551
14033.44043 0.139679
14034.15039 0.139807
14034.87012 0.139935
14035.58984 0.140023
14036.30957 0.140103
14037.03027 0.140183
14037.75000 0.140263
14038.46973 0.140342
14039.19043 0.140422
14039.91016 0.140502
14040.62988 0.140543
14041.34961 0.140578
14042.07031 0.140614
14042.79004 0.140649
14043.50977 0.140684
14044.23047 0.140719
14044.95020 0.140755
14045.66992 0.140755
14046.38965 0.140752
14047.11035 0.140749
14047.83008 0.140746
14048.54980 0.140743
14049.26953 0.14074
14049.99023 0.140737
14050.70996 0.140708
14051.42969 0.140679
14052.15039 0.140651
14052.87012 0.140622
14053.58984 0.140593
14054.30957 0.140564
14055.03027 0.140533
14055.75000 0.140469
14056.46973 0.140406
14057.20020 0.140342
14057.91992 0.140279
14058.63965 0.140215
14059.36035 0.140152
14060.08008 0.140086
14060.79980 0.140005
14061.51953 0.139924
14062.24023 0.139844
14062.95996 0.139763
14063.67969 0.139682
14064.40039 0.139601
14065.12012 0.139517
14065.83984 0.139423
14066.57031 0.139329
14067.29004 0.139234
14068.00977 0.13914
14068.73047 0.139045
14069.45020 0.138951
14070.16992 0.138854
14070.88965 0.13875
14071.62012 0.138646
14072.33984 0.138542
14073.05957 0.138438
14073.78027 0.138334
14074.50000 0.13823
14075.21973 0.138127
14075.94043 0.138025
14076.66992 0.137924
14077.38965 0.137822
14078.11035 0.137721
14078.83008 0.13762
14079.54980 0.137518
14080.26953 0.137411
14081.00000 0.137297
14081.71973 0.137182
14082.44043 0.137067
14083.16016 0.136952
14083.87988 0.136837
14084.61035 0.136722
14085.33008 0.13661
14086.04980 0.136501
14086.76953 0.136392
14087.49023 0.136284
14088.21973 0.136175
14088.94043 0.136066
14089.66016 0.135957
14090.37988 0.135851
14091.09961 0.135748
14091.83008 0.135645
14092.54980 0.135541
14093.26953 0.135438
14093.99023 0.135335
14094.71973 0.135232
14095.44043 0.135125
14096.16016 0.135017
14096.87988 0.134909
14097.61035 0.1348
14098.33008 0.134692
14099.04980 0.134584
14099.78027 0.134476
14100.50000 0.134381
14101.21973 0.134292
14101.94043 0.134203
14102.66992 0.134115
14103.38965 0.134026
14104.11035 0.133937
14104.83984 0.133848
14105.55957 0.133768
14106.28027 0.133691
14107.00977 0.133613
14107.73047 0.133535
14108.45020 0.133458
14109.16992 0.13338
14109.90039 0.133302
14110.62012 0.13324
14111.33984 0.13318
14112.07031 0.133121
14112.79004 0.133061
14113.51953 0.133001
14114.24023 0.132941
14114.95996 0.132881
14115.69043 0.132823
14116.41016 0.132766
14117.12988 0.132708
14117.86035 0.13265
14118.58008 0.132592
14119.29980 0.132534
14120.03027 0.132476
14120.75000 0.132427
14121.48047 0.132377
14122.20020 0.132327
14122.91992 0.132277
14123.65039 0.132227
14124.37012 0.132178
14125.09961 0.13213
14125.82031 0.132092
14126.54004 0.132054
14127.26953 0.132017
14127.99023 0.131979
14128.71973 0.131942
14129.44043 0.131904
14130.16992 0.131872
14130.88965 0.131858
14131.61035 0.131845
14132.33984 0.131831
14133.05957 0.131818
14133.79004 0.131804
14134.50977 0.131791
14135.24023 0.131779
14135.95996 0.131771
14136.69043 0.131762
14137.41016 0.131754
14138.13965 0.131745
14138.86035 0.131737
14139.58008 0.131728
14140.30957 0.131726
14141.04004 0.131731
14141.75977 0.131737
14142.49023 0.131742
14143.20996 0.131747
14143.92969 0.131752
14144.66016 0.131757
14145.37988 0.131769
14146.11035 0.131786
14146.83984 0.131803
14147.55957 0.13182
14148.29004 0.131837
14149.00977 0.131854
14149.74023 0.131872
14150.45996 0.131899
14151.19043 0.131932
14151.91016 0.131964
14152.63965 0.131997
14153.36035 0.13203
14154.08984 0.132063
14154.82031 0.132096
14155.54004 0.132142
14156.26953 0.132193
14156.99023 0.132244
14157.71973 0.132294
14158.44043 0.132345
14159.16992 0.132396
14159.90039 0.132447
14160.62012 0.132499
14161.34961 0.132551
14162.07031 0.132603
14162.79980 0.132656
14163.53027 0.132708
14164.25000 0.13276
14164.98047 0.132812
14165.70020 0.132881
14166.42969 0.132951
14167.16016 0.13302
14167.87988 0.133089
14168.61035 0.133159
14169.33008 0.133229
14170.05957 0.133299
14170.79004 0.133376
14171.50977 0.133452
14172.24023 0.133529
14172.96973 0.133606
14173.69043 0.133683
14174.41992 0.13376
14175.15039 0.13384
14175.87012 0.133933
14176.59961 0.134025
14177.33008 0.134118
14178.04980 0.13421
14178.78027 0.134302
14179.50977 0.134395
14180.23047 0.134489
14180.95996 0.134585
14181.69043 0.134682
14182.41992 0.134778
14183.13965 0.134875
14183.87012 0.134971
14184.59961 0.135068
14185.32031 0.135173
14186.04980 0.135288
14186.78027 0.135403
14187.50977 0.135517
14188.23047 0.135632
14188.95996 0.135747
14189.69043 0.135862
14190.41992 0.135984
14191.13965 0.136112
14191.87012 0.136239
14192.59961 0.136367
14193.33008 0.136494
14194.04980 0.136622
14194.78027 0.13675
14195.50977 0.136876
14196.24023 0.137002
14196.95996 0.137127
14197.69043 0.137253
14198.41992 0.137379
14199.15039 0.137505
14199.87988 0.137631
14200.59961 0.13776
14201.33008 0.137891
14202.05957 0.138021
14202.79004 0.138152
14203.50977 0.138282
14204.24023 0.138412
14204.96973 0.138543
14205.70020 0.138677
14206.42969 0.138812
14207.16016 0.138947
14207.87988 0.139081
14208.61035 0.139216
14209.33984 0.139351
14210.07031 0.139485
14210.79980 0.139616
14211.53027 0.139746
14212.25000 0.139877
14212.98047 0.140008
14213.70996 0.140138
14214.44043 0.140269
14215.16992 0.140406
14215.90039 0.140565
14216.62988 0.140724
14217.36035 0.140882
14218.08008 0.141041
14218.80957 0.1412
14219.54004 0.141359
14220.26953 0.141517
14221.00000 0.141674
14221.73047 0.141831
14222.45996 0.141988
14223.19043 0.142145
14223.91992 0.142302
14224.65039 0.142459
14225.37988 0.142614
14226.09961 0.142766
14226.83008 0.142917
14227.55957 0.143069
14228.29004 0.143221
14229.01953 0.143373
14229.75000 0.143524
14230.48047 0.14368
14231.20996 0.143837
14231.94043 0.143994
14232.66992 0.144152
14233.40039 0.144309
14234.12988 0.144467
14234.86035 0.144624
14235.58984 0.144778
14236.32031 0.14493
14237.04980 0.145083
14237.78027 0.145236
14238.50977 0.145388
14239.24023 0.145541
14239.96973 0.145694
14240.70020 0.145856
14241.42969 0.146018
14242.16016 0.146181
14242.88965 0.146344
14243.62012 0.146507
14244.34961 0.14667
14245.08008 0.146833
14245.80957 0.146998
14246.54004 0.147162
14247.26953 0.147327
14248.00000 0.147492
14248.73047 0.147657
14249.45996 0.147822
14250.19043 0.147984
14250.91992 0.148139
14251.65039 0.148294
14252.37988 0.148449
14253.11035 0.148604
14253.83984 0.14876
14254.57031 0.148915
14255.29980 0.149071
14256.04004 0.149228
14256.76953 0.149385
14257.50000 0.149542
14258.23047 0.149699
14258.95996 0.149856
14259.69043 0.150013
14260.41992 0.150166
14261.15039 0.150316
14261.87988 0.150466
14262.61035 0.150615
14263.34961 0.150765
14264.08008 0.150915
14264.80957 0.151064
14265.54004 0.151209
14266.26953 0.151352
14267.00000 0.151495
14267.73047 0.151638
14268.45996 0.151781
14269.20020 0.151924
14269.92969 0.152067
14270.66016 0.152211
14271.38965 0.152355
14272.12012 0.152499
14272.84961 0.152643
14273.58984 0.152787
14274.32031 0.152931
14275.04980 0.153076
14275.78027 0.153222
14276.50977 0.153367
14277.25000 0.153513
14277.98047 0.153659
14278.70996 0.153805
14279.44043 0.153951
14280.16992 0.154095
14280.90039 0.154233
14281.63965 0.154372
14282.37012 0.15451
14283.09961 0.154649
14283.83008 0.154787
14284.57031 0.154926
14285.29980 0.15506
14286.03027 0.155189
14286.75977 0.155317
14287.50000 0.155446
14288.23047 0.155574
14288.95996 0.155703
14289.69043 0.155831
14290.41992 0.155955
14291.16016 0.156075
14291.88965 0.156195
14292.62012 0.156315
14293.36035 0.156435
14294.08984 0.156555
14294.82031 0.156675
14295.54980 0.156787
14296.29004 0.156896
14297.01953 0.157005
14297.75000 0.157115
14298.49023 0.157225
14299.21973 0.157334
14299.95020 0.157444
14300.67969 0.157553
14301.41992 0.157663
14302.15039 0.157772
14302.87988 0.157882
14303.62012 0.157991
14304.34961 0.158101
14305.08008 0.158209
14305.82031 0.158306
14306.54980 0.158403
14307.28027 0.158499
14308.01953 0.158596
14308.75000 0.158693
14309.48047 0.158789
14310.21973 0.158886
14310.95020 0.158981
14311.69043 0.159077
14312.41992 0.159173
14313.15039 0.159269
14313.88965 0.159364
14314.62012 0.15946
14315.34961 0.159553
14316.08984 0.159642
14316.82031 0.159731
14317.55957 0.15982
14318.29004 0.159909
14319.01953 0.159998
14319.75977 0.160087
14320.49023 0.160171
14321.23047 0.160252
14321.95996 0.160333
14322.69043 0.160413
14323.42969 0.160494
14324.16016 0.160575
14324.90039 0.160656
14325.62988 0.160727
14326.37012 0.160797
14327.09961 0.160866
14327.83008 0.160935
14328.57031 0.161005
14329.29980 0.161074
14330.04004 0.161143
14330.76953 0.161208
14331.50977 0.161273
14332.24023 0.161337
14332.98047 0.161402
14333.70996 0.161467
14334.45020 0.161532
14335.17969 0.161595
14335.91992 0.161651
14336.65039 0.161708
14337.38965 0.161764
14338.12012 0.161821
14338.86035 0.161878
14339.58984 0.161934
14340.33008 0.16199
14341.05957 0.162044
14341.79980 0.162097
14342.53027 0.162151
14343.26953 0.162205
14344.00000 0.162258
14344.74023 0.162312
14345.46973 0.162363
14346.20996 0.162412
14346.94043 0.162461
14347.67969 0.162509
14348.41992 0.162558
14349.15039 0.162607
14349.88965 0.162656
14350.62012 0.162692
14351.36035 0.162726
14352.08984 0.162761
14352.83008 0.162795
14353.55957 0.162829
14354.29980 0.162863
14355.04004 0.162898
14355.76953 0.162937
14356.50977 0.162977
14357.24023 0.163016
14357.98047 0.163056
14358.71973 0.163096
14359.45020 0.163135
14360.19043 0.163172
14360.91992 0.1632
14361.66016 0.163228
14362.40039 0.163256
14363.12988 0.163284
14363.87012 0.163312
14364.61035 0.16334
14365.33984 0.163366
14366.08008 0.163389
14366.82031 0.163413
14367.54980 0.163436
14368.29004 0.163459
14369.01953 0.163482
14369.75977 0.163506
14370.50000 0.163526
14371.23047 0.163546
14371.96973 0.163565
14372.70996 0.163585
14373.45020 0.163605
14374.17969 0.163624
14374.91992 0.163644
14375.66016 0.163663
14376.38965 0.163683
14377.12988 0.163702
14377.87012 0.163722
14378.59961 0.163741
14379.33984 0.163761
14380.08008 0.163778
14380.82031 0.163779
14381.54980 0.163781
14382.29004 0.163782
14383.03027 0.163783
14383.75977 0.163784
14384.50000 0.163785
14385.24023 0.16379
14385.98047 0.163803
14386.70996 0.163817
14387.45020 0.16383
14388.19043 0.163844
14388.92969 0.163857
14389.66016 0.163871
14390.40039 0.163879
14391.13965 0.163882
14391.87988 0.163885
14392.62012 0.163888
14393.34961 0.163891
14394.08984 0.163894
14394.83008 0.163897
14395.57031 0.163904
14396.29980 0.163912
14397.04004 0.16392
14397.78027 0.163928
14398.51953 0.163937
14399.25977 0.163945
14400.00000 0.163953
14400.73047 0.163954
14401.46973 0.163954
14402.20996 0.163955
14402.95020 0.163956
14403.69043 0.163957
14404.41992 0.163958
14405.16016 0.163956
14405.90039 0.163948
14406.63965 0.16394
14407.37988 0.163931
14408.12012 0.163923
14408.86035 0.163915
14409.58984 0.163907
14410.33008 0.163906
14411.07031 0.163915
14411.80957 0.163925
14412.54980 0.163934
14413.29004 0.163943
14414.03027 0.163953
14414.76953 0.163962
14415.50977 0.163958
14416.24023 0.163947
14416.98047 0.163936
14417.71973 0.163926
14418.45996 0.163915
14419.20020 0.163904
14419.94043 0.163893
14420.67969 0.163886
14421.41992 0.163879
14422.16016 0.163872
14422.90039 0.163865
14423.63965 0.163858
14424.37988 0.163852
14425.12012 0.163845
14425.84961 0.163843
14426.58984 0.16384
14427.33008 0.163837
14428.07031 0.163835
14428.80957 0.163832
14429.54980 0.16383
14430.29004 0.163827
14431.03027 0.163823
14431.76953 0.163819
14432.50977 0.163815
14433.25000 0.163811
14433.99023 0.163808
14434.73047 0.163804
14435.46973 0.163798
14436.20996 0.163791
14436.95020 0.163784
14437.69043 0.163777
14438.42969 0.16377
14439.16992 0.163763
14439.91016 0.163756
14440.65039 0.163752
14441.38965 0.163748
14442.12988 0.163745
14442.87012 0.163741
14443.61035 0.163737
14444.34961 0.163733
14445.08984 0.163729
14445.83008 0.16372
14446.58008 0.163712
14447.32031 0.163703
14448.05957 0.163695
14448.79980 0.163686
14449.54004 0.163678
14450.28027 0.163669
14451.01953 0.163661
14451.75977 0.163653
14452.50000 0.163645
14453.24023 0.163637
14453.98047 0.163628
14454.71973 0.16362
14455.46973 0.163614
14456.20996 0.163608
14456.95020 0.163603
14457.69043 0.163598
14458.42969 0.163592
14459.16992 0.163587
14459.91016 0.163581
14460.65039 0.163579
14461.38965 0.163578
14462.13965 0.163577
14462.87988 0.163575
14463.62012 0.163574
14464.36035 0.163572
14465.09961 0.16357
14465.83984 0.163563
14466.58008 0.163556
14467.33008 0.16355
14468.07031 0.163543
14468.80957 0.163537
14469.54980 0.16353
14470.29004 0.163525
14471.04004 0.163524
14471.78027 0.163522
14472.51953 0.163521
14473.25977 0.16352
14474.00000 0.163518
14474.75000 0.163517
14475.49023 0.163509
14476.23047 0.163499
14476.96973 0.163489
14477.70996 0.163479
14478.45996 0.163468
14479.20020 0.163458
14479.94043 0.163448
14480.67969 0.163443
14481.41992 0.163439
14482.16992 0.163435
14482.91016 0.16343
14483.65039 0.163426
14484.38965 0.163421
14485.13965 0.163419
14485.87988 0.163425
14486.62012 0.163431
14487.37012 0.163437
14488.11035 0.163443
14488.84961 0.16345
14489.58984 0.163456
14490.33984 0.163457
14491.08008 0.163452
14491.82031 0.163447
14492.55957 0.163442
14493.30957 0.163437
14494.04980 0.163432
14494.79004 0.163428
14495.54004 0.163427
14496.28027 0.163427
14497.01953 0.163428
14497.76953 0.163428
14498.50977 0.163429
14499.25000 0.163429
14500.00000 0.16343
14500.74023 0.163438
14501.48047 0.163446
14502.23047 0.163454
14502.96973 0.163462
14503.70996 0.163471
14504.45996 0.163479
14505.20020 0.163485
14505.94043 0.163486
14506.69043 0.163486
14507.42969 0.163486
14508.16992 0.163487
14508.91992 0.163487
14509.66016 0.163487
14510.41016 0.163493
14511.15039 0.163502
14511.88965 0.163512
14512.63965 0.163522
14513.37988 0.163531
14514.12012 0.163541
14514.87012 0.163551
14515.61035 0.16356
14516.36035 0.16357
14517.09961 0.163579
14517.84961 0.163589
14518.58984 0.163598
14519.33008 0.163608
14520.08008 0.163616
14520.82031 0.163618
14521.57031 0.16362
14522.30957 0.163622
14523.05957 0.163624
14523.79980 0.163626
14524.54980 0.163628
14525.29004 0.163633
14526.04004 0.163645
14526.78027 0.163657
14527.51953 0.163668
14528.26953 0.16368
14529.00977 0.163692
14529.75977 0.163703
14530.50000 0.163717
14531.25000 0.163733
14531.99023 0.163748
14532.74023 0.163763
14533.48047 0.163778
14534.23047 0.163794
14534.96973 0.163809
14535.71973 0.163817
14536.45996 0.163826
14537.20996 0.163834
14537.95020 0.163843
14538.70020 0.163851
14539.44043 0.16386
14540.19043 0.163869
14540.94043 0.163882
14541.67969 0.163896
14542.42969 0.163909
14543.16992 0.163922
14543.91992 0.163935
14544.66016 0.163948
14545.41016 0.163965
14546.15039 0.163984
14546.90039 0.164004
14547.65039 0.164023
14548.38965 0.164042
14549.13965 0.164061
14549.87988 0.164081
14550.62988 0.164089
14551.37988 0.164095
14552.12012 0.164101
14552.87012 0.164107
14553.61035 0.164114
14554.36035 0.16412
14555.09961 0.164128
14555.84961 0.16415
14556.59961 0.164171
14557.33984 0.164193
14558.08984 0.164215
14558.83984 0.164236
14559.58008 0.164258
14560.33008 0.164276
14561.08008 0.164288
14561.82031 0.1643
14562.57031 0.164313
14563.30957 0.164325
14564.05957 0.164337
14564.80957 0.16435
14565.54980 0.164371
14566.29980 0.164395
14567.04980 0.164419
14567.79004 0.164443
14568.54004 0.164468
14569.29004 0.164492
14570.04004 0.164516
14570.78027 0.164535
14571.53027 0.164554
14572.28027 0.164574
14573.01953 0.164593
14573.76953 0.164612
14574.51953 0.164632
14575.25977 0.164649
14576.00977 0.164663
14576.75977 0.164676
14577.50977 0.16469
14578.25000 0.164704
14579.00000 0.164718
14579.75000 0.164731
14580.50000 0.164752
14581.24023 0.164776
14581.99023 0.164799
14582.74023 0.164823
14583.49023 0.164847
14584.23047 0.164871
14584.98047 0.164895
14585.73047 0.164916
14586.48047 0.164937
14587.21973 0.164958
14587.96973 0.164979
14588.71973 0.165
14589.46973 0.165021
14590.21973 0.165041
14590.95996 0.165061
14591.70996 0.16508
14592.45996 0.165099
14593.20996 0.165118
14593.95996 0.165138
14594.70020 0.165157
14595.45020 0.165179
14596.20020 0.165204
14596.95020 0.165229
14597.70020 0.165253
14598.45020 0.165278
14599.19043 0.165302
14599.94043 0.165327
14600.69043 0.165352
14601.44043 0.165376
14602.19043 0.165401
14602.94043 0.165425
14603.67969 0.16545
14604.42969 0.165475
14605.17969 0.165498
14605.92969 0.16552
14606.67969 0.165541
14607.42969 0.165562
14608.17969 0.165584
14608.92969 0.165605
14609.66992 0.165627
14610.41992 0.165646
14611.16992 0.165664
14611.91992 0.165682
14612.66992 0.165701
14613.41992 0.165719
14614.16992 0.165737
14614.91992 0.165755
14615.66992 0.165774
14616.41992 0.165794
14617.16992 0.165813
14617.91992 0.165832
14618.66992 0.165851
14619.41016 0.165871
14620.16016 0.165892
14620.91016 0.165922
14621.66016 0.165952
14622.41016 0.165982
14623.16016 0.166012
14623.91016 0.166042
14624.66016 0.166073
14625.41016 0.166101
14626.16016 0.166127
14626.91016 0.166153
14627.66016 0.16618
14628.41016 0.166206
14629.16016 0.166233
14629.91016 0.166259
14630.66016 0.166279
14631.41016 0.166298
14632.16016 0.166317
14632.91016 0.166336
14633.66016 0.166355
14634.41016 0.166374
14635.16016 0.166396
14635.91016 0.166427
14636.66016 0.166459
14637.41016 0.166491
14638.16016 0.166522
14638.91016 0.166554
14639.66016 0.166586
14640.41016 0.166611
14641.16016 0.166633
14641.91016 0.166654
14642.66992 0.166676
14643.41992 0.166697
14644.16992 0.166718
14644.91992 0.16674
14645.66992 0.166767
14646.41992 0.166794
14647.16992 0.166822
14647.91992 0.166849
14648.66992 0.166877
14649.41992 0.166904
14650.16992 0.166933
14650.91992 0.166964
14651.67969 0.166995
14652.42969 0.167027
14653.17969 0.167058
14653.92969 0.16709
14654.67969 0.167121
14655.42969 0.167153
14656.17969 0.167185
14656.92969 0.167218
14657.69043 0.16725
14658.44043 0.167283
14659.19043 0.167315
14659.94043 0.167348
14660.69043 0.167374
14661.44043 0.167399
14662.19043 0.167425
14662.95020 0.16745
14663.70020 0.167476
14664.45020 0.167501
14665.20020 0.167528
14665.95020 0.167559
14666.70996 0.167589
14667.45996 0.16762
14668.20996 0.16765
14668.95996 0.167681
14669.70996 0.167711
14670.45996 0.167742
14671.21973 0.167774
14671.96973 0.167806
14672.71973 0.167837
14673.46973 0.167869
14674.23047 0.1679
14674.98047 0.167932
14675.73047 0.167966
14676.48047 0.168
14677.23047 0.168034
14677.99023 0.168069
14678.74023 0.168103
14679.49023 0.168137
14680.24023 0.16817
14681.00000 0.168199
14681.75000 0.168229
14682.50000 0.168258
14683.25000 0.168288
14684.00977 0.168317
14684.75977 0.168347
14685.50977 0.168379
14686.26953 0.168413
14687.01953 0.168448
14687.76953 0.168482
14688.51953 0.168516
14689.28027 0.16855
14690.03027 0.168584
14690.78027 0.16862
14691.54004 0.168657
14692.29004 0.168693
14693.04004 0.16873
14693.79980 0.168766
14694.54980 0.168803
14695.29980 0.168839
14696.05957 0.168873
14696.80957 0.168907
14697.55957 0.168942
14698.32031 0.168976
14699.07031 0.169011
14699.82031 0.169045
14700.58008 0.169082
14701.33008 0.16912
14702.08008 0.169158
14702.83984 0.169197
14703.58984 0.169235
14704.34961 0.169273
14705.09961 0.169311
14705.84961 0.169346
14706.61035 0.169381
14707.36035 0.169416
14708.12012 0.169451
14708.87012 0.169486
14709.62012 0.169522
14710.37988 0.169562
14711.12988 0.169607
14711.88965 0.169652
14712.63965 0.169697
14713.38965 0.169742
14714.15039 0.169788
14714.90039 0.169833
14715.66016 0.169877
14716.41016 0.169922
14717.16992 0.169967
14717.91992 0.170011
14718.66992 0.170056
14719.42969 0.1701
14720.17969 0.170144
14720.94043 0.170182
14721.69043 0.170221
14722.45020 0.17026
14723.20020 0.170298
14723.95996 0.170337
14724.70996 0.170376
14725.46973 0.170417
14726.21973 0.170459
14726.98047 0.170501
14727.73047 0.170543
14728.49023 0.170585
14729.24023 0.170627
14730.00000 0.170669
14730.75000 0.170717
14731.50977 0.170765
14732.25977 0.170814
14733.01953 0.170862
14733.76953 0.17091
14734.53027 0.170959
14735.28027 0.171004
14736.04004 0.171043
14736.79004 0.171083
14737.54980 0.171123
14738.30957 0.171162
14739.05957 0.171202
14739.82031 0.171242
14740.57031 0.17128
14741.33008 0.171317
14742.08008 0.171354
14742.83984 0.171392
14743.58984 0.171429
14744.34961 0.171467
14745.11035 0.171505
14745.86035 0.17155
14746.62012 0.171594
14747.37012 0.171639
14748.12988 0.171683
14748.88965 0.171728
14749.63965 0.171773
14750.40039 0.171816
14751.15039 0.171857
14751.91016 0.171899
14752.66992 0.17194
14753.41992 0.171982
14754.17969 0.172023
14754.94043 0.172065
14755.69043 0.172116
14756.45020 0.172168
14757.20996 0.17222
14757.95996 0.172272
14758.71973 0.172324
14759.48047 0.172376
14760.23047 0.172425
14760.99023 0.172467
14761.75000 0.172509
14762.50000 0.172551
14763.25977 0.172594
14764.01953 0.172636
14764.76953 0.172678
14765.53027 0.172721
14766.29004 0.172765
14767.04004 0.172808
14767.79980 0.172851
14768.55957 0.172895
14769.30957 0.172938
14770.07031 0.172981
14770.83008 0.173024
14771.58984 0.173067
14772.33984 0.17311
14773.09961 0.173153
14773.86035 0.173196
14774.62012 0.173239
14775.37012 0.173283
14776.12988 0.173327
14776.88965 0.173372
14777.63965 0.173417
14778.40039 0.173461
14779.16016 0.173506
14779.91992 0.173551
14780.67969 0.173597
14781.42969 0.173644
14782.19043 0.173691
14782.95020 0.173738
14783.70996 0.173785
14784.45996 0.173832
14785.21973 0.173877
14785.98047 0.173918
14786.74023 0.173959
14787.50000 0.174001
14788.25000 0.174042
14789.00977 0.174083
14789.76953 0.174125
14790.53027 0.174161
14791.29004 0.174196
14792.04004 0.174231
14792.79980 0.174266
14793.55957 0.174301
14794.32031 0.174335
14795.08008 0.174372
14795.83984 0.174421
14796.59961 0.174469
14797.34961 0.174518
14798.11035 0.174567
14798.87012 0.174616
14799.62988 0.174665
14800.38965 0.174706
14801.15039 0.17474
14801.91016 0.174774
14802.66992 0.174808
14803.41992 0.174842
14804.17969 0.174876
14804.94043 0.17491
14805.70020 0.174949
14806.45996 0.174989
14807.21973 0.175028
14807.98047 0.175067
14808.74023 0.175106
14809.50000 0.175146
14810.25000 0.175184
14811.00977 0.17522
14811.76953 0.175256
14812.53027 0.175292
14813.29004 0.175328
14814.04980 0.175364
14814.80957 0.1754
14815.57031 0.175433
14816.33008 0.175466
14817.08984 0.175498
14817.84961 0.17553
14818.61035 0.175563
14819.37012 0.175595
14820.12988 0.175627
14820.88965 0.175659
14821.65039 0.17569
14822.41016 0.175722
14823.16992 0.175753
14823.92969 0.175784
14824.69043 0.175816
14825.45020 0.175848
14826.20996 0.175881
14826.96973 0.175915
14827.73047 0.175948
14828.49023 0.175981
14829.25000 0.176015
14830.00977 0.176048
14830.76953 0.176084
14831.53027 0.17612
14832.29004 0.176156
14833.04980 0.176192
14833.80957 0.176228
14834.57031 0.176264
14835.33008 0.176297
14836.08984 0.176325
14836.84961 0.176352
14837.61035 0.17638
14838.37012 0.176408
14839.12988 0.176436
14839.88965 0.176464
14840.66016 0.1765
14841.41992 0.176536
14842.17969 0.176573
14842.94043 0.176609
14843.70020 0.176646
14844.45996 0.176683
14845.21973 0.176716
14845.98047 0.176742
14846.74023 0.176768
14847.50000 0.176794
14848.25977 0.17682
14849.03027 0.176845
14849.79004 0.176871
14850.54980 0.176899
14851.30957 0.176927
14852.07031 0.176956
14852.83008 0.176984
14853.58984 0.177012
14854.36035 0.177041
14855.12012 0.177069
14855.87988 0.177096
14856.63965 0.177124
14857.40039 0.177151
14858.16016 0.177178
14858.91992 0.177206
14859.69043 0.177233
14860.45020 0.177256
14861.20996 0.177275
14861.96973 0.177294
14862.73047 0.177313
14863.50000 0.177332
14864.25977 0.177351
14865.01953 0.177371
14865.78027 0.177401
14866.54004 0.177431
14867.30957 0.177462
14868.07031 0.177492
14868.83008 0.177523
14869.58984 0.177553
14870.34961 0.177578
14871.12012 0.177597
14871.87988 0.177616
14872.63965 0.177635
14873.40039 0.177653
14874.16992 0.177672
14874.92969 0.177691
14875.69043 0.177708
14876.45020 0.177724
14877.21973 0.17774
14877.98047 0.177757
14878.74023 0.177773
14879.50000 0.17779
14880.26953 0.177807
14881.03027 0.177825
14881.79004 0.177844
14882.55957 0.177863
14883.32031 0.177881
14884.08008 0.1779
14884.84961 0.177918
14885.61035 0.177942
14886.37012 0.177966
14887.12988 0.177991
14887.90039 0.178015
14888.66016 0.17804
14889.41992 0.178065
14890.19043 0.178086
14890.95020 0.178099
14891.70996 0.178112
14892.48047 0.178124
14893.24023 0.178137
14894.00000 0.17815
14894.76953 0.178162
14895.53027 0.178177
14896.29980 0.178192
14897.05957 0.178207
14897.82031 0.178222
14898.58984 0.178238
14899.34961 0.178253
14900.11035 0.178268
14900.87988 0.17828
14901.63965 0.178293
14902.41016 0.178305
14903.16992 0.178318
14903.92969 0.17833
14904.70020 0.178343
14905.45996 0.178357
14906.23047 0.178372
14906.99023 0.178387
14907.75000 0.178402
14908.51953 0.178417
14909.28027 0.178433
14910.04980 0.178447
14910.80957 0.178455
14911.58008 0.178463
14912.33984 0.178472
14913.09961 0.17848
14913.87012 0.178488
14914.62988 0.178496
14915.40039 0.178506
14916.16016 0.178516
14916.92969 0.178526
14917.69043 0.178537
14918.45996 0.178547
14919.21973 0.178558
14919.99023 0.178568
14920.75000 0.178577
14921.51953 0.178585
14922.28027 0.178594
14923.04980 0.178602
14923.80957 0.178611
14924.58008 0.178619
14925.33984 0.17863
14926.11035 0.178643
14926.87012 0.178656
14927.63965 0.17867
14928.40039 0.178683
14929.16992 0.178696
14929.92969 0.178709
14930.70020 0.178713
14931.45996 0.178716
14932.23047 0.178718
14932.99023 0.178721
14933.75977 0.178724
14934.53027 0.178727
14935.29004 0.178733
14936.05957 0.178745
14936.82031 0.178757
14937.58984 0.178769
14938.34961 0.178781
14939.12012 0.178793
14939.88965 0.178806
14940.65039 0.178802
14941.41992 0.178796
14942.17969 0.178791
14942.95020 0.178785
14943.71973 0.178779
14944.48047 0.178773
14945.25000 0.178769
14946.00977 0.17877
14946.78027 0.178771
14947.54980 0.178772
14948.30957 0.178773
14949.08008 0.178774
14949.83984 0.178775
14950.61035 0.178781
14951.37988 0.178788
14952.13965 0.178795
14952.91016 0.178802
14953.67969 0.178808
14954.44043 0.178815
14955.20996 0.178821
14955.98047 0.178823
14956.74023 0.178825
14957.50977 0.178827
14958.28027 0.178829
14959.04004 0.178831
14959.80957 0.178833
14960.58008 0.178835
14961.33984 0.178837
14962.11035 0.17884
14962.87988 0.178842
14963.65039 0.178844
14964.41016 0.178846
14965.17969 0.178846
14965.95020 0.178839
14966.70996 0.178833
14967.48047 0.178826
14968.25000 0.178819
14969.01953 0.178813
14969.78027 0.178806
14970.54980 0.178806
14971.32031 0.178808
14972.08984 0.17881
14972.84961 0.178812
14973.62012 0.178814
14974.38965 0.178816
14975.16016 0.178818
14975.91992 0.178816
14976.69043 0.178814
14977.45996 0.178813
14978.23047 0.178811
14979.00000 0.178809
14979.75977 0.178807
14980.53027 0.178807
14981.29980 0.178807
14982.07031 0.178807
14982.83984 0.178807
14983.59961 0.178807
14984.37012 0.178807
14985.13965 0.178807
14985.91016 0.178803
14986.67969 0.1788
14987.44043 0.178796
14988.20996 0.178793
14988.98047 0.178789
14989.75000 0.178786
14990.51953 0.178787
14991.29004 0.17879
14992.04980 0.178794
14992.82031 0.178797
14993.58984 0.1788
14994.36035 0.178804
14995.12988 0.178806
14995.90039 0.178802
14996.66992 0.178799
14997.44043 0.178795
14998.20020 0.178792
14998.96973 0.178788
14999.74023 0.178785
15000.50977 0.17877
15001.28027 0.17875
15002.04980 0.178729
15002.82031 0.178708
15003.58984 0.178688
15004.36035 0.178667
15005.12988 0.178649
15005.90039 0.17864
15006.66016 0.17863
15007.42969 0.178621
15008.20020 0.178612
15008.96973 0.178603
15009.74023 0.178594
15010.50977 0.178585
15011.28027 0.178574
15012.04980 0.178564
15012.82031 0.178554
15013.58984 0.178544
15014.36035 0.178534
15015.12988 0.17852
15015.90039 0.178491
15016.66992 0.178461
15017.44043 0.178431
15018.20996 0.178402
15018.98047 0.178372
15019.75000 0.178342
15020.51953 0.178323
15021.29004 0.178309
15022.05957 0.178295
15022.83008 0.178281
15023.59961 0.178267
15024.37012 0.178253
15025.13965 0.178239
15025.91016 0.178227
15026.67969 0.178215
15027.45020 0.178203
15028.21973 0.178192
15028.99023 0.178179
15029.75977 0.178168
15030.53027 0.178153
15031.29980 0.178139
15032.07031 0.178123
15032.83984 0.178109
15033.61035 0.178093
15034.37988 0.178079
15035.16016 0.178063
15035.92969 0.178047
15036.70020 0.178031
15037.46973 0.178014
15038.24023 0.177998
15039.00977 0.177982
15039.78027 0.177966
15040.54980 0.177952
15041.32031 0.177939
15042.08984 0.177926
15042.86035 0.177913
15043.63965 0.1779
15044.41016 0.177888
15045.17969 0.177874
15045.95020 0.177856
15046.71973 0.177838
15047.49023 0.17782
15048.25977 0.177802
15049.03027 0.177784
15049.80957 0.177767
15050.58008 0.177759
15051.34961 0.177755
15052.12012 0.177752
15052.88965 0.177748
15053.66016 0.177744
15054.44043 0.17774
15055.20996 0.177734
15055.98047 0.177722
15056.75000 0.17771
15057.51953 0.177698
15058.29004 0.177686
15059.07031 0.177674
15059.83984 0.177662
15060.61035 0.177645
15061.37988 0.177627
15062.16016 0.177609
15062.92969 0.177591
15063.70020 0.177573
15064.46973 0.177556
15065.24023 0.177542
15066.01953 0.177537
15066.79004 0.177532
15067.55957 0.177527
15068.33008 0.177521
15069.11035 0.177516
15069.87988 0.177511
15070.65039 0.1775
15071.41992 0.177486
15072.20020 0.177473
15072.96973 0.17746
15073.74023 0.177447
15074.50977 0.177434
15075.29004 0.177419
15076.05957 0.1774
15076.83008 0.177382
15077.61035 0.177363
15078.37988 0.177344
15079.15039 0.177326
15079.91992 0.177307
15080.70020 0.17731
15081.46973 0.177316
15082.24023 0.177322
15083.01953 0.177327
15083.79004 0.177333
15084.55957 0.177339
15085.33984 0.177338
15086.11035 0.177328
15086.87988 0.177319
15087.66016 0.177309
15088.42969 0.1773
15089.20020 0.177291
15089.98047 0.177281
15090.75000 0.177272
15091.51953 0.177263
15092.29980 0.177254
15093.07031 0.177245
15093.84961 0.177236
15094.62012 0.177227
15095.38965 0.177222
15096.16992 0.177221
15096.94043 0.177219
15097.70996 0.177218
15098.49023 0.177216
15099.25977 0.177215
15100.04004 0.177213
15100.80957 0.177206
15101.58008 0.177198
15102.36035 0.177191
15103.12988 0.177183
15103.91016 0.177176
15104.67969 0.177168
15105.45996 0.177165
15106.23047 0.177166
15107.00000 0.177166
15107.78027 0.177166
15108.54980 0.177166
15109.33008 0.177166
15110.09961 0.177168
15110.87988 0.177175
15111.65039 0.177182
15112.42969 0.17719
15113.20020 0.177197
15113.98047 0.177204
15114.75000 0.177212
15115.53027 0.177209
15116.29980 0.177201
15117.08008 0.177194
15117.84961 0.177186
15118.62988 0.177178
15119.40039 0.177171
15120.17969 0.177167
15120.95020 0.177175
15121.73047 0.177183
15122.50000 0.177192
15123.28027 0.1772
15124.04980 0.177208
15124.83008 0.177216
15125.59961 0.177217
15126.37988 0.177215
15127.15039 0.177214
15127.92969 0.177212
15128.70020 0.177211
15129.48047 0.177209
15130.25977 0.177207
15131.03027 0.177203
15131.80957 0.177198
15132.58008 0.177194
15133.36035 0.17719
15134.12988 0.177185
15134.91016 0.177181
15135.69043 0.17719
15136.45996 0.177201
15137.24023 0.177212
15138.00977 0.177224
15138.79004 0.177235
15139.57031 0.177246
15140.33984 0.177248
15141.12012 0.17724
15141.88965 0.177231
15142.66992 0.177223
15143.45020 0.177214
15144.21973 0.177206
15145.00000 0.177197
15145.78027 0.17721
15146.54980 0.177222
15147.33008 0.177235
15148.11035 0.177247
15148.87988 0.17726
15149.66016 0.177272
15150.44043 0.17728
15151.20996 0.177284
15151.99023 0.177288
15152.76953 0.177292
15153.54004 0.177296
15154.32031 0.1773
15155.09961 0.177305
15155.87012 0.177312
15156.65039 0.17732
15157.42969 0.177328
15158.20020 0.177336
15158.98047 0.177343
15159.75977 0.177351
15160.54004 0.177357
15161.30957 0.177363
15162.08984 0.177369
15162.87012 0.177374
15163.63965 0.17738
15164.41992 0.177386
15165.20020 0.177391
15165.98047 0.177396
15166.75000 0.177401
15167.53027 0.177406
15168.30957 0.177411
15169.08984 0.177417
15169.86035 0.177422
15170.63965 0.177426
15171.41992 0.177431
15172.20020 0.177436
15172.96973 0.177441
15173.75000 0.177446
15174.53027 0.177451
15175.30957 0.177459
15176.08984 0.177472
15176.86035 0.177484
15177.63965 0.177497
15178.41992 0.17751
15179.20020 0.177523
15179.98047 0.177536
15180.75000 0.177549
15181.53027 0.177562
15182.30957 0.177575
15183.08984 0.177588
15183.87012 0.177601
15184.65039 0.177614
15185.41992 0.17762
15186.20020 0.177621
15186.98047 0.177622
15187.75977 0.177622
15188.54004 0.177623
15189.32031 0.177624
15190.09961 0.177626
15190.87012 0.177636
15191.65039 0.177645
15192.42969 0.177655
15193.20996 0.177665
15193.99023 0.177674
15194.76953 0.177684
15195.54980 0.177694
15196.33008 0.177704
15197.11035 0.177715
15197.87988 0.177725
15198.66016 0.177736
15199.44043 0.177746
15200.21973 0.177757
15201.00000 0.177767
15201.78027 0.177778
15202.55957 0.177789
15203.33984 0.1778
15204.12012 0.177811
15204.90039 0.177821
15205.67969 0.177837
15206.45996 0.177854
15207.24023 0.177871
15208.01953 0.177888
15208.79980 0.177905
15209.58008 0.177922
15210.36035 0.177938
15211.13965 0.177952
15211.91992 0.177967
15212.70020 0.177981
15213.46973 0.177995
15214.25000 0.17801
15215.04004 0.178024
15215.80957 0.178029
15216.58984 0.178034
15217.37012 0.178039
15218.16016 0.178044
15218.94043 0.178049
15219.70996 0.178055
15220.50000 0.178064
15221.28027 0.178076
15222.05957 0.178087
15222.83984 0.178099
15223.62012 0.178111
15224.40039 0.178123
15225.17969 0.178135
15225.95996 0.178146
15226.74023 0.178158
15227.51953 0.178169
15228.29980 0.178181
15229.08008 0.178192
15229.86035 0.178204
15230.63965 0.178218
15231.41992 0.178233
15232.20020 0.178248
15232.98047 0.178263
15233.76953 0.178278
15234.54980 0.178293
15235.33008 0.178305
15236.11035 0.178315
15236.88965 0.178324
15237.66992 0.178334
15238.45020 0.178343
15239.23047 0.178352
15240.00977 0.178362
15240.79004 0.178365
15241.58008 0.178369
15242.36035 0.178372
15243.13965 0.178376
15243.91992 0.178379
15244.70020 0.178383
15245.48047 0.178393
15246.26953 0.178407
15247.04980 0.178422
15247.83008 0.178437
15248.61035 0.178451
15249.38965 0.178466
15250.16992 0.17848
15250.95996 0.17849
15251.74023 0.1785
15252.51953 0.178511
15253.29980 0.178521
15254.08008 0.178531
15254.87012 0.178542
15255.65039 0.178557
15256.42969 0.178573
15257.20996 0.178588
15257.99023 0.178604
15258.78027 0.17862
15259.55957 0.178636
15260.33984 0.178645
15261.12012 0.178645
15261.90039 0.178645
15262.69043 0.178645
15263.46973 0.178645
15264.25000 0.178644
15265.03027 0.178645
15265.82031 0.178659
15266.59961 0.178673
15267.37988 0.178687
15268.16992 0.178701
15268.95020 0.178715
15269.73047 0.178729
15270.50977 0.178734
15271.29980 0.178734
15272.08008 0.178733
15272.86035 0.178733
15273.63965 0.178733
15274.42969 0.178733
15275.20996 0.178736
15275.99023 0.178748
15276.78027 0.17876
15277.55957 0.178772
15278.33984 0.178784
15279.12988 0.178797
15279.91016 0.178809
15280.69043 0.178818
15281.48047 0.178827
15282.25977 0.178836
15283.04004 0.178845
15283.83008 0.178854
15284.61035 0.178863
15285.38965 0.17887
15286.17969 0.178876
15286.95996 0.178882
15287.75000 0.178888
15288.53027 0.178894
15289.30957 0.1789
15290.09961 0.178905
15290.87988 0.178908
15291.66016 0.178911
15292.45020 0.178914
15293.23047 0.178916
15294.01953 0.178919
15294.79980 0.178922
15295.58008 0.178931
15296.37012 0.178942
15297.15039 0.178953
15297.94043 0.178964
15298.71973 0.178975
15299.50000 0.178986
15300.29004 0.178988
15301.07031 0.178976
15301.86035 0.178963
15302.63965 0.17895
15303.42969 0.178938
15304.20996 0.178925
15305.00000 0.178913
15305.78027 0.178911
15306.55957 0.178909
15307.34961 0.178908
15308.12988 0.178906
15308.91992 0.178904
15309.70020 0.178902
15310.49023 0.178897
15311.26953 0.178889
15312.05957 0.178881
15312.83984 0.178874
15313.62988 0.178866
15314.41016 0.178858
15315.20020 0.178851
15315.98047 0.178846
15316.76953 0.178841
15317.54980 0.178836
15318.33984 0.178831
15319.12988 0.178826
15319.91016 0.178821
15320.70020 0.178806
15321.48047 0.178789
15322.26953 0.178773
15323.04980 0.178756
15323.83984 0.178739
15324.62012 0.178722
15325.41016 0.178714
15326.19043 0.178713
15326.98047 0.178712
15327.76953 0.178711
15328.54980 0.178711
15329.33984 0.17871
15330.12012 0.178708
15330.91016 0.178703
15331.69043 0.178697
15332.48047 0.178692
15333.26953 0.178686
15334.04980 0.178681
15334.83984 0.178675
15335.62988 0.178666
15336.41016 0.178656
15337.20020 0.178647
15337.98047 0.178637
15338.76953 0.178627
15339.55957 0.178617
15340.33984 0.178607
15341.12988 0.178597
15341.91992 0.178587
15342.70020 0.178577
15343.49023 0.178567
15344.26953 0.178557
15345.05957 0.178547
15345.84961 0.178534
15346.62988 0.178522
15347.41992 0.178509
15348.20996 0.178496
15349.00000 0.178484
15349.78027 0.178471
15350.57031 0.178461
15351.36035 0.178452
15352.13965 0.178442
15352.92969 0.178433
15353.71973 0.178424
15354.50000 0.178415
15355.29004 0.178405
15356.08008 0.178396
15356.87012 0.178387
15357.65039 0.178377
15358.44043 0.178368
15359.23047 0.178358
15360.00977 0.178349
15360.79980 0.178336
15361.58984 0.178323
15362.37988 0.17831
15363.16016 0.178296
15363.95020 0.178283
15364.74023 0.17827
15365.53027 0.178256
15366.32031 0.178242
15367.09961 0.178227
15367.88965 0.178212
15368.67969 0.178198
15369.46973 0.178183
15370.25000 0.178167
15371.04004 0.178147
15371.83008 0.178126
15372.62012 0.178106
15373.41016 0.178086
15374.19043 0.178066
15374.98047 0.178045
15375.76953 0.178039
15376.55957 0.178033
15377.34961 0.178026
15378.13965 0.17802
15378.91992 0.178014
15379.70996 0.178008
15380.50000 0.177996
15381.29004 0.177982
15382.08008 0.177967
15382.87012 0.177953
15383.65039 0.177938
15384.44043 0.177924
15385.23047 0.177909
15386.01953 0.177895
15386.80957 0.177882
15387.59961 0.177868
15388.38965 0.177854
15389.17969 0.17784
15389.95996 0.177826
15390.75000 0.177807
15391.54004 0.177787
15392.33008 0.177767
15393.12012 0.177747
15393.91016 0.177728
15394.70020 0.177708
15395.49023 0.177694
15396.28027 0.177684
15397.07031 0.177674
15397.86035 0.177664
15398.65039 0.177654
15399.42969 0.177644
15400.21973 0.177636
15401.00977 0.177632
15401.79980 0.177629
15402.58984 0.177626
15403.37988 0.177622
15404.16992 0.177619
15404.95996 0.177616
15405.75000 0.177612
15406.54004 0.177608
15407.33008 0.177605
15408.12012 0.177601
15408.91016 0.177598
15409.70020 0.177594
15410.49023 0.177587
15411.28027 0.177577
15412.07031 0.177567
15412.86035 0.177557
15413.65039 0.177547
15414.44043 0.177537
15415.23047 0.17753
15416.01953 0.177531
15416.80957 0.177532
15417.59961 0.177533
15418.38965 0.177535
15419.17969 0.177536
15419.96973 0.177537
15420.75977 0.17754
15421.54980 0.177543
15422.33984 0.177546
15423.13965 0.177549
15423.92969 0.177552
15424.71973 0.177555
15425.50977 0.177549
15426.29980 0.177538
15427.08984 0.177528
15427.87988 0.177517
15428.66992 0.177506
15429.45996 0.177495
15430.25000 0.177486
15431.04004 0.177481
15431.83008 0.177476
15432.62988 0.17747
15433.41992 0.177464
15434.20996 0.177459
15435.00000 0.177454
15435.79004 0.17746
15436.58008 0.177467
15437.37012 0.177474
15438.16992 0.177481
15438.95996 0.177488
15439.75000 0.177495
15440.54004 0.177495
15441.33008 0.177492
15442.12012 0.177489
15442.91016 0.177486
15443.70996 0.177483
15444.50000 0.17748
15445.29004 0.177478
15446.08008 0.177476
15446.87012 0.177474
15447.66992 0.177472
15448.45996 0.17747
15449.25000 0.177468
15450.04004 0.177466
15450.83008 0.177463
15451.62012 0.177461
15452.41992 0.177458
15453.20996 0.177455
15454.00000 0.177453
15454.79004 0.17745
15455.58984 0.17745
15456.37988 0.177451
15457.16992 0.177452
15457.95996 0.177453
15458.75000 0.177455
15459.54980 0.177456
15460.33984 0.177454
15461.12988 0.177447
15461.92969 0.177441
15462.71973 0.177435
15463.50977 0.177428
15464.29980 0.177422
15465.09961 0.177416
15465.88965 0.177418
15466.67969 0.177419
15467.46973 0.17742
15468.26953 0.177422
15469.05957 0.177423
15469.84961 0.177424
15470.65039 0.177425
15471.44043 0.177427
15472.23047 0.177428
15473.03027 0.177429
15473.82031 0.17743
15474.61035 0.177432
15475.41016 0.177433
15476.20020 0.177433
15476.99023 0.177434
15477.79004 0.177435
15478.58008 0.177436
15479.37012 0.177436
15480.16992 0.177439
15480.95996 0.177447
15481.75000 0.177456
15482.54980 0.177464
15483.33984 0.177473
15484.12988 0.177481
15484.92969 0.17749
15485.71973 0.177491
15486.51953 0.177492
15487.30957 0.177492
15488.09961 0.177493
15488.90039 0.177493
15489.69043 0.177494
15490.49023 0.177499
15491.28027 0.177507
15492.07031 0.177515
15492.87012 0.177523
15493.66016 0.177531
15494.45996 0.177539
15495.25000 0.177546
15496.04980 0.177547
15496.83984 0.177549
15497.62988 0.177551
15498.42969 0.177553
15499.21973 0.177555
15500.01953 0.177556
15500.80957 0.177554
15501.61035 0.177551
15502.40039 0.177548
15503.20020 0.177545
15503.99023 0.177542
15504.79004 0.17754
15505.58008 0.177543
15506.37988 0.177548
15507.16992 0.177554
15507.96973 0.177559
15508.75977 0.177565
15509.55957 0.17757
15510.34961 0.177572
15511.15039 0.17757
15511.94043 0.177567
15512.74023 0.177565
15513.53027 0.177563
15514.33008 0.17756
15515.12012 0.177558
15515.91992 0.177558
15516.70996 0.177558
15517.50977 0.177558
15518.29980 0.177558
15519.09961 0.177558
15519.90039 0.177558
15520.69043 0.177556
15521.49023 0.177553
15522.28027 0.17755
15523.08008 0.177547
15523.87012 0.177543
15524.66992 0.17754
15525.45996 0.177541
15526.25977 0.177545
15527.05957 0.177549
15527.84961 0.177552
15528.65039 0.177556
15529.45020 0.17756
15530.24023 0.177565
15531.04004 0.177575
15531.83008 0.177585
15532.62988 0.177594
15533.42969 0.177604
15534.21973 0.177614
15535.01953 0.177624
15535.82031 0.177619
15536.61035 0.177614
15537.41016 0.17761
15538.20020 0.177605
15539.00000 0.1776
15539.79980 0.177596
15540.58984 0.177599
15541.38965 0.177605
15542.19043 0.177612
15542.98047 0.177618
15543.78027 0.177624
15544.58008 0.17763
15545.37988 0.177638
15546.16992 0.177648
15546.96973 0.177658
15547.76953 0.177668
15548.55957 0.177677
15549.36035 0.177687
15550.16016 0.177697
15550.95020 0.177711
15551.75000 0.177725
15552.54980 0.177738
15553.34961 0.177752
15554.13965 0.177765
15554.94043 0.177779
15555.74023 0.177793
15556.54004 0.177809
15557.33008 0.177824
15558.12988 0.177839
15558.92969 0.177854
15559.73047 0.177869
15560.51953 0.177877
15561.32031 0.177881
15562.12012 0.177886
15562.91992 0.177891
15563.70996 0.177895
15564.50977 0.1779
15565.30957 0.177906
15566.11035 0.177914
15566.91016 0.177922
15567.70020 0.17793
15568.50000 0.177938
15569.29980 0.177946
15570.09961 0.177956
15570.90039 0.177975
15571.70020 0.177994
15572.49023 0.178013
15573.29004 0.178032
15574.08984 0.178051
15574.88965 0.17807
15575.69043 0.178088
15576.49023 0.178106
15577.28027 0.178124
15578.08008 0.178142
15578.87988 0.178159
15579.67969 0.178177
15580.48047 0.178192
15581.28027 0.178205
15582.08008 0.178218
15582.87012 0.178231
15583.66992 0.178244
15584.46973 0.178258
15585.26953 0.178274
15586.07031 0.178297
15586.87012 0.17832
15587.66992 0.178342
15588.46973 0.178365
15589.26953 0.178388
15590.07031 0.17841
15590.86035 0.178421
15591.66016 0.178432
15592.45996 0.178443
15593.25977 0.178454
15594.05957 0.178465
15594.86035 0.178476
15595.66016 0.178499
15596.45996 0.178525
15597.25977 0.17855
15598.05957 0.178576
15598.86035 0.178601
15599.66016 0.178627
15600.45996 0.178651
15601.25977 0.178675
15602.05957 0.178699
15602.86035 0.178722
15603.66016 0.178746
15604.45996 0.17877
15605.25977 0.178797
15606.05957 0.17883
15606.86035 0.178864
15607.66016 0.178898
15608.45996 0.178931
15609.25977 0.178965
15610.05957 0.178999
15610.86035 0.179033
15611.66016 0.179068
15612.45996 0.179102
15613.25977 0.179137
15614.05957 0.179172
15614.86035 0.179206
15615.66016 0.179237
15616.45996 0.179268
15617.25977 0.179298
15618.05957 0.179328
15618.86035 0.179358
15619.66016 0.179389
15620.45996 0.179418
15621.25977 0.179447
15622.07031 0.179477
15622.87012 0.179506
15623.66992 0.179535
15624.46973 0.179564
15625.26953 0.179596
15626.07031 0.179631
15626.87012 0.179666
15627.66992 0.179702
15628.46973 0.179737
15629.28027 0.179772
15630.08008 0.179807
15630.87988 0.179839
15631.67969 0.179871
15632.48047 0.179902
15633.28027 0.179934
15634.08008 0.179966
15634.87988 0.179998
15635.69043 0.180035
15636.49023 0.180074
15637.29004 0.180113
15638.08984 0.180152
15638.88965 0.180191
15639.69043 0.18023
15640.50000 0.180264
15641.29980 0.180295
15642.09961 0.180327
15642.90039 0.180358
15643.70020 0.18039
15644.50000 0.180421
15645.30957 0.180455
15646.11035 0.180493
15646.91016 0.180532
15647.70996 0.18057
15648.51953 0.180608
15649.32031 0.180646
15650.12012 0.180685
15650.91992 0.180727
15651.71973 0.180768
15652.53027 0.18081
15653.33008 0.180851
15654.12988 0.180893
15654.92969 0.180934
15655.74023 0.180968
15656.54004 0.181
15657.33984 0.181033
15658.13965 0.181065
15658.95020 0.181098
15659.75000 0.181131
15660.54980 0.181166
15661.36035 0.181203
15662.16016 0.181239
15662.95996 0.181276
15663.75977 0.181313
15664.57031 0.181349
15665.37012 0.181385
15666.16992 0.181419
15666.98047 0.181453
15667.78027 0.181487
15668.58008 0.181521
15669.38965 0.181556
15670.19043 0.181593
15670.99023 0.181643
15671.79980 0.181693
15672.59961 0.181743
15673.40039 0.181792
15674.20996 0.181842
15675.00977 0.181892
15675.80957 0.181926
15676.62012 0.18196
15677.41992 0.181995
15678.21973 0.18203
15679.03027 0.182064
15679.83008 0.182098
15680.63965 0.182139
15681.44043 0.182182
15682.24023 0.182225
15683.04980 0.182267
15683.84961 0.18231
15684.66016 0.182352
15685.45996 0.182395
15686.25977 0.182437
15687.07031 0.18248
15687.87012 0.182523
15688.67969 0.182565
15689.48047 0.182608
15690.29004 0.182645
15691.08984 0.182673
15691.88965 0.182702
15692.70020 0.18273
15693.50000 0.182759
15694.30957 0.182787
15695.11035 0.182817
15695.91992 0.182859
15696.71973 0.182901
15697.53027 0.182942
15698.33008 0.182984
15699.12988 0.183026
15699.94043 0.183068
15700.74023 0.183104
15701.54980 0.183139
15702.34961 0.183175
15703.16016 0.18321
15703.95996 0.183246
15704.76953 0.183282
15705.57031 0.183315
15706.37988 0.183348
15707.17969 0.183381
15707.99023 0.183414
15708.79004 0.183447
15709.59961 0.18348
15710.41016 0.183515
15711.20996 0.183552
15712.01953 0.183589
15712.82031 0.183626
15713.62988 0.183663
15714.42969 0.1837
15715.24023 0.183736
15716.04004 0.183772
15716.84961 0.183808
15717.66016 0.183844
15718.45996 0.18388
15719.26953 0.183916
15720.07031 0.183951
15720.87988 0.183987
15721.67969 0.184022
15722.49023 0.184058
15723.29980 0.184093
15724.09961 0.184128
15724.91016 0.184164
15725.70996 0.184198
15726.51953 0.184232
15727.33008 0.184266
15728.12988 0.1843
15728.94043 0.184333
15729.75000 0.184367
15730.54980 0.184401
15731.36035 0.184434
15732.16992 0.184468
15732.96973 0.184501
15733.78027 0.184535
15734.58008 0.184568
15735.38965 0.184605
15736.20020 0.184644
15737.00000 0.184683
15737.80957 0.184723
15738.62012 0.184762
15739.42969 0.184802
15740.23047 0.184836
15741.04004 0.18486
15741.84961 0.184884
15742.65039 0.184907
15743.45996 0.184931
15744.26953 0.184955
15745.07031 0.184979
15745.87988 0.185016
15746.69043 0.185053
15747.50000 0.18509
15748.29980 0.185127
15749.11035 0.185164
15749.91992 0.185201
15750.73047 0.185233
15751.53027 0.185265
15752.33984 0.185297
15753.15039 0.185329
15753.95996 0.185361
15754.75977 0.185393
15755.57031 0.185418
15756.37988 0.18544
15757.19043 0.185461
15757.99023 0.185483
15758.79980 0.185505
15759.61035 0.185526
15760.41992 0.185551
15761.23047 0.185577
15762.03027 0.185604
15762.83984 0.185631
15763.65039 0.185657
15764.45996 0.185684
15765.26953 0.185711
15766.07031 0.185741
15766.87988 0.185771
15767.69043 0.185801
15768.50000 0.18583
15769.30957 0.18586
15770.12012 0.18589
15770.91992 0.185918
15771.73047 0.185946
15772.54004 0.185975
15773.34961 0.186003
15774.16016 0.186031
15774.96973 0.18606
15775.78027 0.186088
15776.58008 0.186116
15777.38965 0.186144
15778.20020 0.186172
15779.00977 0.1862
15779.82031 0.186228
15780.62988 0.186247
15781.44043 0.186264
15782.25000 0.186281
15783.05957 0.186299
15783.87012 0.186315
15784.66992 0.186333
15785.48047 0.186354
15786.29004 0.186379
15787.09961 0.186403
15787.91016 0.186427
15788.71973 0.186452
15789.53027 0.186476
15790.33984 0.1865
15791.15039 0.186521
15791.95996 0.186542
15792.76953 0.186563
15793.58008 0.186585
15794.38965 0.186606
15795.20020 0.186625
15796.00977 0.186639
15796.82031 0.186652
15797.62988 0.186665
15798.44043 0.186679
15799.25000 0.186692
15800.05957 0.186704
15800.87012 0.18671
15801.67969 0.186715
15802.49023 0.18672
15803.29980 0.186725
15804.11035 0.186731
15804.91992 0.186736
15805.73047 0.186743
15806.54004 0.18675
15807.34961 0.186758
15808.16016 0.186765
15808.96973 0.186773
15809.78027 0.18678
15810.58984 0.18679
15811.40039 0.186802
15812.20996 0.186814
15813.01953 0.186826
15813.83008 0.186838
15814.63965 0.18685
15815.45020 0.186855
15816.25977 0.186855
15817.07031 0.186855
15817.87988 0.186854
15818.70020 0.186854
15819.50977 0.186854
15820.32031 0.186852
15821.12988 0.186846
15821.94043 0.18684
15822.75000 0.186834
15823.55957 0.186828
15824.37012 0.186823
15825.17969 0.186823
15826.00000 0.186842
15826.80957 0.186861
15827.62012 0.186881
15828.42969 0.1869
15829.24023 0.18692
15830.04980 0.186937
15830.86035 0.186926
15831.67969 0.186914
15832.49023 0.186902
15833.29980 0.18689
15834.11035 0.186879
15834.91992 0.186867
15835.73047 0.186855
15836.54980 0.186842
15837.36035 0.18683
15838.16992 0.186817
15838.98047 0.186805
15839.79004 0.186792
15840.61035 0.186784
15841.41992 0.186777
15842.23047 0.18677
15843.04004 0.186762
15843.84961 0.186755
15844.66992 0.186748
15845.48047 0.186743
15846.29004 0.186739
15847.09961 0.186735
15847.91992 0.18673
15848.73047 0.186726
15849.54004 0.186722
15850.34961 0.186714
15851.16992 0.186701
15851.98047 0.186687
15852.79004 0.186673
15853.59961 0.18666
15854.41992 0.186646
15855.23047 0.186634
15856.04004 0.186624
15856.84961 0.186615
15857.66992 0.186606
15858.48047 0.186596
15859.29004 0.186587
15860.11035 0.186577
15860.91992 0.186561
15861.73047 0.186545
15862.54004 0.186529
15863.36035 0.186512
15864.16992 0.186496
15864.99023 0.18648
15865.79980 0.186465
15866.61035 0.186449
15867.41992 0.186434
15868.24023 0.186419
15869.04980 0.186403
15869.87012 0.186388
15870.67969 0.186368
15871.49023 0.186347
15872.30957 0.186327
15873.12012 0.186306
15873.92969 0.186286
15874.75000 0.186265
15875.55957 0.186253
15876.37988 0.186244
15877.19043 0.186235
15878.00000 0.186226
15878.82031 0.186217
15879.62988 0.186208
15880.45020 0.186187
15881.25977 0.186157
15882.07031 0.186126
15882.88965 0.186095
15883.70020 0.186065
15884.51953 0.186034
15885.33008 0.186008
15886.13965 0.185987
15886.95996 0.185967
15887.76953 0.185947
15888.58984 0.185927
15889.40039 0.185907
15890.21973 0.185884
15891.03027 0.185857
15891.84961 0.185829
15892.66016 0.185801
15893.48047 0.185773
15894.29004 0.185745
15895.09961 0.185717
15895.91992 0.185688
15896.73047 0.185659
15897.54980 0.18563
15898.36035 0.185601
15899.17969 0.185572
15900.00000 0.185543
15900.80957 0.185524
15901.62012 0.185504
15902.44043 0.185484
15903.25000 0.185465
15904.07031 0.185445
15904.88965 0.185425
15905.70020 0.185401
15906.51953 0.185376
15907.33008 0.185352
15908.15039 0.185327
15908.95996 0.185302
15909.78027 0.185277
15910.58984 0.185267
15911.41016 0.185261
15912.23047 0.185256
15913.04004 0.185251
15913.86035 0.185246
15914.66992 0.185241
15915.49023 0.185223
15916.29980 0.185196
15917.12012 0.18517
15917.94043 0.185144
15918.75000 0.185118
15919.57031 0.185091
15920.37988 0.185067
15921.20020 0.185045
15922.01953 0.185022
15922.83008 0.184999
15923.65039 0.184977
15924.46973 0.184954
15925.28027 0.184928
15926.09961 0.184896
15926.91992 0.184864
15927.73047 0.184833
15928.54980 0.184801
15929.36035 0.184769
15930.17969 0.184739
15931.00000 0.184716
15931.80957 0.184693
15932.62988 0.18467
15933.45020 0.184648
15934.25977 0.184625
15935.08008 0.184602
15935.90039 0.184572
15936.71973 0.184542
15937.53027 0.184512
15938.34961 0.184482
15939.16992 0.184451
15939.98047 0.184421
15940.79980 0.184397
15941.62012 0.184373
15942.44043 0.184349
15943.25000 0.184325
15944.07031 0.184301
15944.88965 0.184277
15945.70996 0.184256
15946.51953 0.184236
15947.33984 0.184216
15948.16016 0.184196
15948.96973 0.184176
15949.79004 0.184156
15950.61035 0.18412
15951.42969 0.18408
15952.25000 0.18404
15953.05957 0.184
15953.87988 0.183959
15954.70020 0.183919
15955.51953 0.183884
15956.33008 0.183851
15957.15039 0.183818
15957.96973 0.183786
15958.79004 0.183753
15959.61035 0.18372
15960.41992 0.183688
15961.24023 0.183656
15962.05957 0.183624
15962.87988 0.183592
15963.70020 0.18356
15964.51953 0.183529
15965.33008 0.183498
15966.15039 0.183467
15966.96973 0.183437
15967.79004 0.183406
15968.61035 0.183376
15969.42969 0.183346
15970.25000 0.183317
15971.05957 0.183292
15971.87988 0.183267
15972.70020 0.183242
15973.51953 0.183216
15974.33984 0.183191
15975.16016 0.183165
15975.98047 0.183132
15976.79980 0.183099
15977.62012 0.183066
15978.42969 0.183033
15979.25000 0.183001
15980.07031 0.182968
15980.88965 0.182932
15981.70996 0.182896
15982.53027 0.18286
15983.34961 0.182823
15984.16992 0.182787
15984.99023 0.182751
15985.80957 0.182727
15986.62988 0.182703
15987.45020 0.182678
15988.26953 0.182654
15989.08984 0.18263
15989.91016 0.182606
15990.73047 0.182565
15991.54980 0.182523
15992.37012 0.18248
15993.19043 0.182438
15994.00977 0.182395
15994.83008 0.182353
15995.65039 0.182322
15996.45996 0.182295
15997.29004 0.182267
15998.11035 0.18224
15998.92969 0.182213
15999.75000 0.182185
16000.57031 0.182171
16001.38965 0.182164
16002.20996 0.182156
16003.03027 0.182148
16003.84961 0.18214
16004.66992 0.182132
16005.49023 0.182117
16006.30957 0.182098
16007.12988 0.182079
16007.95020 0.18206
16008.76953 0.18204
16009.58984 0.182021
16010.41016 0.182003
16011.23047 0.181987
16012.04980 0.181971
16012.87012 0.181954
16013.70020 0.181938
16014.51953 0.181922
16015.33984 0.181905
16016.16016 0.181887
16016.98047 0.181869
16017.79980 0.181852
16018.62012 0.181834
16019.44043 0.181816
16020.25977 0.181799
16021.08008 0.181783
16021.91016 0.181767
16022.73047 0.181751
16023.54980 0.181735
16024.37012 0.181719
16025.19043 0.181703
16026.00977 0.181686
16026.83008 0.18167
16027.66016 0.181654
16028.48047 0.181637
16029.29980 0.181621
16030.12012 0.181605
16030.94043 0.18159
16031.76953 0.181575
16032.58984 0.18156
16033.41016 0.181545
16034.23047 0.181531
16035.04980 0.181516
16035.87988 0.181506
16036.70020 0.181495
16037.51953 0.181485
16038.33984 0.181474
16039.16016 0.181464
16039.99023 0.181453
16040.80957 0.181437
16041.62988 0.181422
16042.45020 0.181406
16043.28027 0.18139
16044.09961 0.181374
16044.91992 0.181358
16045.74023 0.181349
16046.57031 0.181341
16047.38965 0.181334
16048.20996 0.181326
16049.03027 0.181318
16049.86035 0.18131
16050.67969 0.181301
16051.50000 0.181292
16052.32031 0.181283
16053.15039 0.181274
16053.96973 0.181265
16054.79004 0.181256
16055.62012 0.181247
16056.44043 0.181239
16057.25977 0.18123
16058.08008 0.181221
16058.91016 0.181212
16059.73047 0.181204
16060.54980 0.181197
16061.37988 0.181191
16062.20020 0.181185
16063.03027 0.18118
16063.84961 0.181174
16064.66992 0.181168
16065.50000 0.181159
16066.32031 0.181148
16067.13965 0.181138
16067.96973 0.181127
16068.79004 0.181116
16069.61035 0.181105
16070.44043 0.181099
16071.25977 0.181099
16072.08984 0.181098
16072.91016 0.181097
16073.73047 0.181096
16074.55957 0.181095
16075.37988 0.181095
16076.20996 0.181094
16077.03027 0.181094
16077.84961 0.181093
16078.67969 0.181093
16079.50000 0.181093
16080.33008 0.181094
16081.15039 0.181096
16081.98047 0.181098
16082.79980 0.181101
16083.62012 0.181103
16084.45020 0.181106
16085.26953 0.181104
16086.09961 0.181096
16086.91992 0.181087
16087.75000 0.181078
16088.57031 0.181069
16089.40039 0.18106
16090.21973 0.181055
16091.04980 0.181058
16091.87012 0.181061
16092.70020 0.181065
16093.51953 0.181068
16094.34961 0.181071
16095.16992 0.181074
16096.00000 0.181072
16096.82031 0.18107
16097.65039 0.181068
16098.46973 0.181066
16099.29980 0.181065
16100.12012 0.181065
16100.95020 0.181077
16101.76953 0.181089
16102.59961 0.181101
16103.41992 0.181113
16104.25000 0.181124
16105.08008 0.181137
16105.90039 0.181153
16106.73047 0.181169
16107.54980 0.181185
16108.37988 0.181201
16109.20020 0.181217
16110.03027 0.181233
16110.86035 0.181247
16111.67969 0.18126
16112.50977 0.181273
16113.33008 0.181286
16114.16016 0.181299
16114.99023 0.181312
16115.80957 0.181312
16116.63965 0.181311
16117.45996 0.18131
16118.29004 0.181309
16119.12012 0.181308
16119.94043 0.181307
16120.76953 0.181329
16121.59961 0.181352
16122.41992 0.181376
16123.25000 0.181399
16124.08008 0.181423
16124.90039 0.181447
16125.73047 0.181466
16126.54980 0.181485
16127.37988 0.181504
16128.20996 0.181523
16129.04004 0.181542
16129.86035 0.181562
16130.69043 0.181581
16131.51953 0.1816
16132.33984 0.181619
16133.16992 0.181638
16134.00000 0.181657
16134.82031 0.181676
16135.65039 0.181703
16136.48047 0.181733
16137.30957 0.181762
16138.12988 0.181792
16138.95996 0.181821
16139.79004 0.181851
16140.62012 0.181867
16141.44043 0.181878
16142.26953 0.18189
16143.09961 0.181901
16143.91992 0.181913
16144.75000 0.181925
16145.58008 0.181951
16146.41016 0.181985
16147.24023 0.182018
16148.05957 0.182051
16148.88965 0.182085
16149.71973 0.182118
16150.54980 0.182143
16151.37988 0.182164
16152.20020 0.182185
16153.03027 0.182205
16153.86035 0.182226
16154.69043 0.182247
16155.51953 0.182281
16156.33984 0.182323
16157.16992 0.182365
16158.00000 0.182406
16158.83008 0.182448
16159.66016 0.18249
16160.49023 0.182519
16161.30957 0.18254
16162.13965 0.18256
16162.96973 0.182581
16163.79980 0.182601
16164.62988 0.182622
16165.45996 0.182648
16166.29004 0.182678
16167.11035 0.182709
16167.94043 0.18274
16168.76953 0.182771
16169.59961 0.182801
16170.42969 0.18283
16171.25977 0.182856
16172.08984 0.182883
16172.91992 0.182909
16173.75000 0.182936
16174.57031 0.182962
16175.40039 0.182995
16176.23047 0.183033
16177.05957 0.183072
16177.88965 0.183111
16178.71973 0.183149
16179.54980 0.183188
16180.37988 0.183227
16181.20996 0.183267
16182.04004 0.183308
16182.87012 0.183348
16183.70020 0.183388
16184.53027 0.183428
16185.36035 0.183468
16186.19043 0.183508
16187.01953 0.183547
16187.84961 0.183587
16188.67969 0.183626
16189.50977 0.183666
16190.33984 0.183705
16191.16992 0.183741
16192.00000 0.183778
16192.83008 0.183815
16193.66016 0.183852
16194.49023 0.183889
16195.32031 0.183931
16196.15039 0.183981
16196.98047 0.184032
16197.80957 0.184082
16198.63965 0.184133
16199.46973 0.184183
16200.29980 0.18423
16201.12988 0.184269
16201.95996 0.184308
16202.79004 0.184346
16203.62012 0.184385
16204.45020 0.184424
16205.28027 0.184464
16206.11035 0.184505
16206.94043 0.184547
16207.76953 0.184588
16208.61035 0.184629
16209.44043 0.18467
16210.26953 0.184711
16211.09961 0.184749
16211.92969 0.184786
16212.75977 0.184824
16213.58984 0.184862
16214.41992 0.1849
16215.25000 0.184941
16216.08008 0.18499
16216.91992 0.185039
16217.75000 0.185089
16218.58008 0.185138
16219.41016 0.185187
16220.24023 0.185235
16221.07031 0.185282
16221.91016 0.185329
16222.74023 0.185376
16223.57031 0.185423
16224.40039 0.185471
16225.23047 0.185516
16226.05957 0.185556
16226.90039 0.185597
16227.73047 0.185637
16228.55957 0.185678
16229.38965 0.185718
16230.21973 0.185762
16231.05957 0.185814
16231.88965 0.185867
16232.71973 0.185919
16233.54980 0.185971
16234.37988 0.186024
16235.21973 0.186075
16236.04980 0.186124
16236.87988 0.186174
16237.70996 0.186223
16238.54980 0.186272
16239.37988 0.186322
16240.20996 0.186369
16241.04004 0.186413
16241.87988 0.186456
16242.70996 0.1865
16243.54004 0.186543
16244.37012 0.186587
16245.20996 0.186634
16246.04004 0.186693
16246.87012 0.186751
16247.70996 0.18681
16248.54004 0.186869
16249.37012 0.186928
16250.20020 0.186985
16251.04004 0.187039
16251.87012 0.187092
16252.70020 0.187146
16253.54004 0.1872
16254.37012 0.187254
16255.20020 0.187307
16256.04004 0.187361
16256.87012 0.187415
16257.70020 0.187468
16258.54004 0.187522
16259.37012 0.187576
16260.20020 0.18763
16261.04004 0.187684
16261.87012 0.187739
16262.70020 0.187794
16263.54004 0.187848
16264.37012 0.187903
16265.20996 0.187958
16266.04004 0.188015
16266.87012 0.188072
16267.70996 0.18813
16268.54004 0.188187
16269.37012 0.188244
16270.20996 0.188302
16271.04004 0.188362
16271.87988 0.188422
16272.70996 0.188483
16273.54004 0.188543
16274.37988 0.188604
16275.20996 0.188661
16276.04980 0.188711
16276.87988 0.188761
16277.71973 0.18881
16278.54980 0.18886
16279.38965 0.18891
16280.21973 0.188962
16281.04980 0.18902
16281.88965 0.189078
16282.71973 0.189136
16283.55957 0.189194
16284.38965 0.189252
16285.23047 0.189312
16286.05957 0.189375
16286.90039 0.189439
16287.73047 0.189502
16288.57031 0.189566
16289.40039 0.18963
16290.24023 0.189691
16291.07031 0.189748
16291.91016 0.189804
16292.74023 0.189861
16293.58008 0.189918
16294.41016 0.189974
16295.25000 0.190032
16296.08008 0.19009
16296.91992 0.190148
16297.75977 0.190207
16298.58984 0.190265
16299.42969 0.190324
16300.25977 0.190386
16301.09961 0.190456
16301.92969 0.190527
16302.76953 0.190597
16303.61035 0.190667
16304.44043 0.190738
16305.28027 0.190802
16306.11035 0.190855
16306.95020 0.190909
16307.78027 0.190962
16308.62012 0.191015
16309.45996 0.191068
16310.29004 0.191124
16311.12988 0.191187
16311.95996 0.191249
16312.79980 0.191311
16313.63965 0.191374
16314.46973 0.191436
16315.30957 0.191497
16316.15039 0.191555
16316.98047 0.191612
16317.82031 0.19167
16318.66016 0.191728
16319.49023 0.191786
16320.33008 0.191848
16321.16992 0.191916
16322.00000 0.191984
16322.83984 0.192052
16323.67969 0.19212
16324.50977 0.192189
16325.34961 0.192254
16326.19043 0.192317
16327.01953 0.192379
16327.86035 0.192442
16328.70020 0.192504
16329.53027 0.192567
16330.37012 0.192632
16331.20996 0.1927
16332.04980 0.192769
16332.87988 0.192837
16333.71973 0.192906
16334.55957 0.192974
16335.40039 0.193037
16336.23047 0.193092
16337.07031 0.193148
16337.91016 0.193203
16338.75000 0.193259
16339.58008 0.193315
16340.41992 0.193376
16341.25977 0.193443
16342.09961 0.193511
16342.92969 0.193578
16343.76953 0.193646
16344.61035 0.193713
16345.45020 0.193773
16346.29004 0.193827
16347.12012 0.19388
16347.95996 0.193934
16348.79980 0.193987
16349.63965 0.19404
16350.48047 0.194099
16351.30957 0.194163
16352.15039 0.194226
16352.99023 0.194289
16353.83008 0.194353
16354.66992 0.194416
16355.50000 0.194483
16356.33984 0.194553
16357.17969 0.194623
16358.01953 0.194693
16358.86035 0.194763
16359.70020 0.194833
16360.54004 0.194892
16361.37988 0.194944
16362.20996 0.194996
16363.04980 0.195049
16363.88965 0.195101
16364.73047 0.195153
16365.57031 0.195213
16366.41016 0.195275
16367.25000 0.195338
16368.08984 0.195401
16368.92969 0.195464
16369.75977 0.195527
16370.59961 0.195591
16371.44043 0.195656
16372.28027 0.19572
16373.12012 0.195785
16373.95996 0.195849
16374.79980 0.195914
16375.63965 0.195965
16376.48047 0.196013
16377.32031 0.19606
16378.16016 0.196107
16379.00000 0.196154
16379.83984 0.196202
16380.67969 0.196257
16381.51953 0.196313
16382.36035 0.19637
16383.20020 0.196426
16384.03906 0.196483
16384.88086 0.19654
16385.72070 0.196613
16386.56055 0.19669
16387.40039 0.196767
16388.24023 0.196844
16389.08008 0.196921
16389.91992 0.196998
16390.75977 0.197051
16391.59961 0.197102
16392.43945 0.197153
16393.27930 0.197204
16394.11914 0.197255
16394.96094 0.197306
16395.80078 0.197372
16396.64062 0.197439
16397.48047 0.197507
16398.32031 0.197574
16399.16016 0.197641
16400.00000 0.197709
16400.83984 0.197767
16401.67969 0.197826
16402.52930 0.197884
16403.36914 0.197942
16404.21094 0.198001
16405.05078 0.198059
16405.89062 0.198107
16406.73047 0.198155
16407.57031 0.198203
16408.41016 0.198251
16409.25000 0.198299
16410.08984 0.198349
16410.93945 0.198412
16411.77930 0.198474
16412.61914 0.198537
16413.46094 0.1986
16414.30078 0.198663
16415.14062 0.198726
16415.98047 0.198788
16416.82031 0.19885
16417.66992 0.198912
16418.50977 0.198975
16419.34961 0.199037
16420.18945 0.199096
16421.02930 0.199143
16421.86914 0.19919
16422.72070 0.199237
16423.56055 0.199284
16424.40039 0.199331
16425.24023 0.19938
16426.08984 0.199432
16426.92969 0.199485
16427.76953 0.199537
16428.60938 0.199589
16429.44922 0.199641
16430.28906 0.199696
16431.14062 0.199756
16431.98047 0.199816
16432.82031 0.199875
16433.66992 0.199935
16434.50977 0.199994
16435.34961 0.200048
16436.18945 0.200092
16437.03906 0.200137
16437.88086 0.200181
16438.72070 0.200226
16439.56055 0.20027
16440.41016 0.200324
16441.25000 0.200386
16442.08984 0.20045
16442.93945 0.200513
16443.77930 0.200575
16444.61914 0.200638
16445.46094 0.200691
16446.31055 0.200737
16447.15039 0.200782
16447.99023 0.200826
16448.83984 0.200872
16449.67969 0.200916
16450.51953 0.200967
16451.36914 0.20102
16452.21094 0.201074
16453.05078 0.201128
16453.90039 0.201182
16454.74023 0.201235
16455.58008 0.20129
16456.42969 0.201346
16457.26953 0.201402
16458.10938 0.201458
16458.96094 0.201514
16459.80078 0.20157
16460.64062 0.201619
16461.49023 0.201665
16462.33008 0.201712
16463.17969 0.201759
16464.01953 0.201805
16464.86914 0.201852
16465.71094 0.201896
16466.55078 0.20194
16467.40039 0.201984
16468.24023 0.202028
16469.08984 0.202072
16469.92969 0.202117
16470.76953 0.202164
16471.61914 0.202212
16472.46094 0.202261
16473.31055 0.202309
16474.15039 0.202357
16475.00000 0.202405
16475.83984 0.202456
16476.68945 0.202508
16477.52930 0.202559
16478.38086 0.202611
16479.22070 0.202662
16480.06055 0.202713
16480.91016 0.202755
16481.75000 0.202796
16482.59961 0.202837
16483.43945 0.202878
16484.28906 0.20292
16485.13086 0.20296
16485.98047 0.202998
16486.82031 0.203036
16487.66992 0.203073
16488.51953 0.203111
16489.35938 0.203149
16490.21094 0.20319
16491.05078 0.20324
16491.90039 0.203291
16492.74023 0.203342
16493.58984 0.203393
16494.42969 0.203444
16495.27930 0.20349
16496.11914 0.203528
16496.97070 0.203566
16497.81055 0.203603
16498.66016 0.203641
16499.50977 0.203679
16500.34961 0.203716
16501.19922 0.203754
16502.03906 0.203791
16502.89062 0.203829
16503.74023 0.203866
16504.58008 0.203904
16505.42969 0.203945
16506.27930 0.20399
16507.11914 0.204035
16507.97070 0.204081
16508.81055 0.204126
16509.66016 0.204171
16510.50977 0.204211
16511.34961 0.204247
16512.19922 0.204284
16513.03906 0.20432
16513.89062 0.204356
16514.74023 0.204393
16515.58008 0.204429
16516.42969 0.204465
16517.27930 0.204501
16518.13086 0.204537
16518.97070 0.204573
16519.82031 0.204609
16520.66992 0.204645
16521.50977 0.204681
16522.35938 0.204717
16523.21094 0.204753
16524.05078 0.204789
16524.90039 0.204825
16525.75000 0.204861
16526.59961 0.204898
16527.43945 0.204934
16528.28906 0.20497
16529.14062 0.205006
16529.98047 0.205042
16530.83008 0.205089
16531.67969 0.205137
16532.52930 0.205184
16533.36914 0.205232
16534.22070 0.205279
16535.07031 0.205325
16535.91992 0.205351
16536.75977 0.205378
16537.60938 0.205404
16538.46094 0.20543
16539.31055 0.205457
16540.16016 0.205486
16541.00000 0.205529
16541.84961 0.205572
16542.69922 0.205615
16543.55078 0.205658
16544.40039 0.205701
16545.24023 0.205738
16546.08984 0.205761
16546.93945 0.205784
16547.78906 0.205806
16548.64062 0.205829
16549.48047 0.205852
16550.33008 0.205879
16551.17969 0.205914
16552.02930 0.20595
16552.88086 0.205984
16553.73047 0.20602
16554.58008 0.206055
16555.41992 0.206092
16556.26953 0.206131
16557.11914 0.206171
16557.97070 0.20621
16558.82031 0.20625
16559.66992 0.206289
16560.51953 0.206317
16561.36914 0.206337
16562.21094 0.206357
16563.06055 0.206378
16563.91016 0.206398
16564.75977 0.206418
16565.60938 0.206453
16566.46094 0.206493
16567.31055 0.206534
16568.16016 0.206574
16569.00977 0.206614
16569.85938 0.206655
16570.71094 0.206687
16571.56055 0.206718
16572.41016 0.206749
16573.25977 0.206779
16574.10938 0.20681
16574.96094 0.206841
16575.80078 0.20687
16576.65039 0.206899
16577.50977 0.206928
16578.35938 0.206957
16579.21094 0.206986
16580.05078 0.207014
16580.90039 0.207029
16581.75000 0.207045
16582.60938 0.207061
16583.46094 0.207076
16584.30078 0.207092
16585.15039 0.20711
16586.00977 0.207138
16586.85938 0.207165
16587.71094 0.207192
16588.56055 0.20722
16589.41016 0.207247
16590.25977 0.207278
16591.10938 0.207315
16591.96094 0.207353
16592.81055 0.207391
16593.66016 0.207428
16594.50977 0.207466
16595.35938 0.207496
16596.21094 0.207516
16597.06055 0.207536
16597.91016 0.207556
16598.75977 0.207576
16599.61914 0.207596
16600.46094 0.20762
16601.32031 0.207648
16602.16992 0.207675
16603.01953 0.207702
16603.86914 0.20773
16604.72070 0.207757
16605.57031 0.207798
16606.41992 0.207846
16607.27930 0.207893
16608.13086 0.207941
16608.98047 0.207988
16609.83008 0.208036
16610.67969 0.208066
16611.52930 0.208092
16612.38086 0.208119
16613.24023 0.208145
16614.08984 0.208171
16614.93945 0.208197
16615.78906 0.208228
16616.64062 0.20826
16617.49023 0.208291
16618.34961 0.208322
16619.19922 0.208353
16620.05078 0.208385
16620.90039 0.208411
16621.75000 0.208437
16622.60938 0.208463
16623.46094 0.208489
16624.31055 0.208515
16625.16016 0.208542
16626.01953 0.208575
16626.86914 0.208608
16627.72070 0.208641
16628.57031 0.208674
16629.41992 0.208707
16630.27930 0.208738
16631.13086 0.208765
16631.98047 0.208792
16632.83008 0.208819
16633.68945 0.208846
16634.53906 0.208873
16635.39062 0.208901
16636.25000 0.208929
16637.09961 0.208957
16637.94922 0.208984
16638.80078 0.209012
16639.66016 0.20904
16640.50977 0.209078
16641.35938 0.209122
16642.22070 0.209167
16643.07031 0.209211
16643.91992 0.209255
16644.77930 0.2093
16645.63086 0.209329
16646.48047 0.209352
16647.33984 0.209375
16648.18945 0.209398
16649.03906 0.209421
16649.90039 0.209444
16650.75000 0.209469
16651.59961 0.209493
16652.46094 0.209518
16653.31055 0.209542
16654.16016 0.209567
16655.01953 0.209592
16655.86914 0.209611
16656.73047 0.20963
16657.58008 0.209649
16658.42969 0.209668
16659.28906 0.209687
16660.14062 0.209709
16661.00000 0.209748
16661.84961 0.209786
16662.69922 0.209824
16663.56055 0.209862
16664.41016 0.2099
16665.26953 0.209938
16666.11914 0.209974
16666.97070 0.210011
16667.83008 0.210047
16668.67969 0.210083
16669.53906 0.21012
16670.39062 0.210148
16671.25000 0.210168
16672.09961 0.210188
16672.96094 0.210208
16673.81055 0.210228
16674.66992 0.210247
16675.51953 0.210272
16676.38086 0.210299
16677.23047 0.210326
16678.08984 0.210353
16678.93945 0.210381
16679.80078 0.210408
16680.65039 0.210429
16681.50977 0.210449
16682.35938 0.210468
16683.22070 0.210487
16684.07031 0.210506
16684.92969 0.210526
16685.77930 0.210558
16686.64062 0.210592
16687.49023 0.210625
16688.34961 0.210659
16689.21094 0.210692
16690.06055 0.210725
16690.91992 0.210751
16691.76953 0.210776
16692.63086 0.210801
16693.48047 0.210827
16694.33984 0.210852
16695.19922 0.210877
16696.05078 0.210899
16696.91016 0.210921
16697.75977 0.210943
16698.61914 0.210965
16699.47070 0.210987
16700.33008 0.21101
16701.18945 0.211034
16702.03906 0.211058
16702.90039 0.211082
16703.75977 0.211106
16704.60938 0.21113
16705.47070 0.211155
16706.32031 0.211181
16707.17969 0.211207
16708.03906 0.211233
16708.89062 0.211259
16709.75000 0.211285
16710.60938 0.211311
16711.46094 0.211337
16712.32031 0.211364
16713.17969 0.21139
16714.02930 0.211416
16714.89062 0.211443
16715.75000 0.211466
16716.59961 0.211489
16717.46094 0.211512
16718.32031 0.211534
16719.17969 0.211557
16720.02930 0.21158
16720.89062 0.211595
16721.75000 0.211611
16722.59961 0.211627
16723.46094 0.211642
16724.32031 0.211658
16725.17969 0.211675
16726.02930 0.211699
16726.89062 0.211723
16727.75000 0.211747
16728.60938 0.21177
16729.46094 0.211794
16730.32031 0.211816
16731.17969 0.211837
16732.03906 0.211858
16732.89062 0.211878
16733.75000 0.211899
16734.60938 0.211919
16735.47070 0.211939
16736.33008 0.211958
16737.17969 0.211978
16738.03906 0.211997
16738.90039 0.212016
16739.75977 0.212035
16740.61914 0.212062
16741.47070 0.21209
16742.33008 0.212119
16743.18945 0.212148
16744.05078 0.212177
16744.91016 0.212206
16745.76953 0.212231
16746.61914 0.212257
16747.48047 0.212283
16748.33984 0.212309
16749.19922 0.212334
16750.06055 0.212358
16750.91992 0.212357
16751.77930 0.212355
16752.63086 0.212354
16753.49023 0.212352
16754.34961 0.212351
16755.21094 0.212359
16756.07031 0.212395
16756.92969 0.212432
16757.78906 0.212468
16758.65039 0.212504
16759.50977 0.21254
16760.36914 0.21257
16761.22070 0.21259
16762.08008 0.21261
16762.93945 0.21263
16763.80078 0.21265
16764.66016 0.21267
16765.51953 0.21269
16766.38086 0.212709
16767.24023 0.212729
16768.09961 0.212748
16768.96094 0.212768
16769.82031 0.212788
16770.67969 0.212812
16771.53906 0.212839
16772.40039 0.212865
16773.25977 0.212892
16774.11914 0.212918
16774.98047 0.212945
16775.83984 0.212954
16776.69922 0.212962
16777.56055 0.212971
16778.41992 0.212979
16779.27930 0.212987
16780.14062 0.212998
16781.00000 0.213017
16781.85938 0.213036
16782.72070 0.213056
16783.58008 0.213075
16784.43945 0.213094
16785.30078 0.213115
16786.16016 0.213138
16787.01953 0.21316
16787.88086 0.213183
16788.74023 0.213206
16789.59961 0.213228
16790.46094 0.213252
16791.32031 0.213276
16792.18945 0.2133
16793.05078 0.213323
16793.91016 0.213347
16794.76953 0.213371
16795.63086 0.213389
16796.49023 0.213405
16797.34961 0.21342
16798.21094 0.213436
16799.07031 0.213451
16799.92969 0.213466
16800.78906 0.213475
16801.66016 0.213483
16802.51953 0.213491
16803.38086 0.213498
16804.24023 0.213506
16805.09961 0.213517
16805.96094 0.213545
16806.83008 0.213574
16807.68945 0.213602
16808.55078 0.213631
16809.41016 0.213659
16810.26953 0.213682
16811.13086 0.213695
16812.00000 0.213707
16812.85938 0.213719
16813.72070 0.213731
16814.58008 0.213744
16815.43945 0.213761
16816.30078 0.213782
16817.16992 0.213804
16818.02930 0.213826
16818.89062 0.213847
16819.75000 0.213869
16820.61914 0.213873
16821.48047 0.213871
16822.33984 0.213868
16823.19922 0.213866
16824.07031 0.213864
16824.92969 0.213861
16825.78906 0.213888
16826.65039 0.213917
16827.51953 0.213946
16828.38086 0.213975
16829.24023 0.214004
16830.09961 0.214031
16830.97070 0.214045
16831.83008 0.214058
16832.68945 0.214072
16833.55078 0.214086
16834.41992 0.214099
16835.27930 0.214114
16836.14062 0.214132
16837.00977 0.21415
16837.86914 0.214168
16838.73047 0.214186
16839.59961 0.214204
16840.46094 0.214219
16841.32031 0.214231
16842.18945 0.214244
16843.05078 0.214256
16843.91016 0.214268
16844.77930 0.21428
16845.64062 0.214299
16846.50000 0.214321
16847.36914 0.214342
16848.23047 0.214364
16849.09961 0.214386
16849.96094 0.214407
16850.82031 0.214412
16851.68945 0.214416
16852.55078 0.21442
16853.41016 0.214423
16854.27930 0.214427
16855.14062 0.214433
16856.00977 0.214449
16856.86914 0.214465
16857.73047 0.214481
16858.59961 0.214497
16859.46094 0.214512
16860.33008 0.214529
16861.18945 0.214546
16862.06055 0.214563
16862.91992 0.21458
16863.78906 0.214597
16864.65039 0.214615
16865.50977 0.214629
16866.38086 0.214643
16867.24023 0.214656
16868.10938 0.21467
16868.97070 0.214683
16869.83984 0.214696
16870.69922 0.214708
16871.57031 0.214721
16872.42969 0.214733
16873.30078 0.214745
16874.16016 0.214757
16875.02930 0.214769
16875.89062 0.214782
16876.75977 0.214794
16877.61914 0.214807
16878.49023 0.214819
16879.34961 0.214832
16880.22070 0.214842
16881.08008 0.214848
16881.94922 0.214853
16882.81055 0.214859
16883.67969 0.214864
16884.53906 0.214869
16885.41016 0.214877
16886.27930 0.214886
16887.14062 0.214895
16888.00977 0.214905
16888.86914 0.214914
16889.74023 0.214923
16890.60938 0.214925
16891.47070 0.214923
16892.33984 0.214921
16893.19922 0.21492
16894.07031 0.214918
16894.93945 0.214916
16895.80078 0.214917
16896.66992 0.214918
16897.52930 0.214919
16898.40039 0.214921
16899.26953 0.214922
16900.13086 0.214923
16901.00000 0.214923
16901.86914 0.214923
16902.73047 0.214923
16903.59961 0.214923
16904.46094 0.214923
16905.33008 0.214925
16906.19922 0.214931
16907.06055 0.214936
16907.92969 0.214941
16908.80078 0.214946
16909.66016 0.214951
16910.52930 0.21496
16911.40039 0.214972
16912.26953 0.214983
16913.13086 0.214994
16914.00000 0.215005
16914.86914 0.215017
16915.73047 0.215015
16916.59961 0.21501
16917.47070 0.215006
16918.33984 0.215002
16919.19922 0.214998
16920.07031 0.214994
16920.93945 0.214996
16921.80078 0.214998
16922.66992 0.215
16923.53906 0.215002
16924.41016 0.215004
16925.27930 0.215005
16926.14062 0.215005
16927.00977 0.215005
16927.88086 0.215004
16928.75000 0.215004
16929.60938 0.215004
16930.48047 0.214999
16931.34961 0.21499
16932.22070 0.214981
16933.08984 0.214972
16933.94922 0.214963
16934.82031 0.214954
16935.68945 0.214943
16936.56055 0.214931
16937.42969 0.214919
16938.28906 0.214907
16939.16016 0.214895
16940.02930 0.214883
16940.90039 0.214883
16941.76953 0.214882
16942.64062 0.214881
16943.50977 0.214881
16944.36914 0.21488
16945.24023 0.214878
16946.10938 0.214872
16946.98047 0.214866
16947.84961 0.214861
16948.72070 0.214855
16949.58984 0.21485
16950.46094 0.214846
16951.32031 0.214843
16952.18945 0.21484
16953.06055 0.214837
16953.92969 0.214835
16954.80078 0.214832
16955.66992 0.21482
16956.53906 0.214806
16957.41016 0.214792
16958.27930 0.214777
16959.15039 0.214763
16960.01953 0.214749
16960.88086 0.214737
16961.75977 0.214724
16962.63086 0.214712
16963.49023 0.214699
16964.35938 0.214687
16965.23047 0.214676
16966.09961 0.21467
16966.97070 0.214664
16967.83984 0.214657
16968.71094 0.214651
16969.58008 0.214645
16970.44922 0.214633
16971.32031 0.214618
16972.18945 0.214602
16973.06055 0.214586
16973.92969 0.21457
16974.80078 0.214554
16975.66992 0.214542
16976.53906 0.21453
16977.41016 0.214518
16978.27930 0.214506
16979.15039 0.214494
16980.02930 0.214482
16980.89062 0.214466
16981.76953 0.21445
16982.64062 0.214434
16983.50977 0.214418
16984.38086 0.214402
16985.25000 0.214386
16986.11914 0.214367
16986.99023 0.214348
16987.85938 0.21433
16988.73047 0.214311
16989.59961 0.214293
16990.47070 0.214287
16991.33984 0.214293
16992.21094 0.214299
16993.08984 0.214305
16993.96094 0.214311
16994.83008 0.214316
16995.69922 0.214287
16996.57031 0.214249
16997.43945 0.214211
16998.31055 0.214173
16999.18945 0.214135
17000.06055 0.214097
17000.92969 0.214052
17001.80078 0.214006
17002.66992 0.213961
17003.53906 0.213916
17004.41016 0.213871
17005.28906 0.213826
17006.16016 0.213782
17007.02930 0.213739
17007.90039 0.213695
17008.76953 0.213652
17009.64062 0.213608
17010.51953 0.213564
17011.39062 0.21352
17012.25977 0.213476
17013.13086 0.213432
17014.00977 0.213388
17014.88086 0.213344
17015.75000 0.213283
17016.61914 0.213219
17017.49023 0.213155
17018.36914 0.213091
17019.24023 0.213027
17020.10938 0.212967
17020.98047 0.212927
17021.85938 0.212887
17022.73047 0.212847
17023.59961 0.212807
17024.47070 0.212767
17025.34961 0.212715
17026.22070 0.212647
17027.08984 0.212579
17027.97070 0.21251
17028.83984 0.212442
17029.71094 0.212373
17030.58984 0.21231
17031.46094 0.212249
17032.33008 0.212188
17033.21094 0.212127
17034.08008 0.212066
17034.94922 0.212005
17035.82031 0.211952
17036.69922 0.211899
17037.57031 0.211847
17038.44922 0.211794
17039.32031 0.211742
17040.18945 0.211689
17041.06055 0.211633
17041.93945 0.211577
17042.81055 0.211521
17043.68945 0.211465
17044.56055 0.211409
17045.42969 0.211352
17046.31055 0.211294
17047.17969 0.211235
17048.05078 0.211176
17048.92969 0.211118
17049.80078 0.211059
17050.67969 0.211002
17051.55078 0.210945
17052.42969 0.210889
17053.30078 0.210832
17054.16992 0.210775
17055.05078 0.210718
17055.91992 0.210657
17056.80078 0.210596
17057.66992 0.210535
17058.53906 0.210475
17059.41992 0.210414
17060.28906 0.21035
17061.16992 0.210282
17062.03906 0.210214
17062.91992 0.210146
17063.78906 0.210077
17064.66992 0.210009
17065.53906 0.209947
17066.41992 0.209889
17067.28906 0.209831
17068.16992 0.209773
17069.03906 0.209715
17069.91992 0.209657
17070.78906 0.20959
17071.66992 0.209522
17072.53906 0.209455
17073.41992 0.209387
17074.28906 0.20932
17075.16992 0.209249
17076.03906 0.209164
17076.91992 0.209079
17077.78906 0.208994
17078.66992 0.208909
17079.53906 0.208824
17080.41992 0.20875
17081.30078 0.208688
17082.16992 0.208625
17083.05078 0.208563
17083.91992 0.208501
17084.80078 0.208438
17085.67969 0.208372
17086.55078 0.208306
17087.42969 0.208239
17088.30078 0.208172
17089.17969 0.208106
17090.05078 0.208038
17090.92969 0.20796
17091.81055 0.207881
17092.67969 0.207803
17093.56055 0.207724
17094.43945 0.207646
17095.31055 0.207569
17096.18945 0.207498
17097.06055 0.207426
17097.93945 0.207355
17098.82031 0.207283
17099.69922 0.207212
17100.57031 0.207145
17101.44922 0.207082
17102.32031 0.207019
17103.19922 0.206955
17104.08008 0.206892
17104.96094 0.206828
17105.83008 0.206767
17106.71094 0.206705
17107.58984 0.206644
17108.46094 0.206582
17109.33984 0.206521
17110.22070 0.206458
17111.08984 0.20639
17111.97070 0.206322
17112.84961 0.206255
17113.73047 0.206187
17114.59961 0.206119
17115.48047 0.206055
17116.35938 0.205995
17117.24023 0.205935
17118.10938 0.205875
17118.99023 0.205815
17119.86914 0.205755
17120.75000 0.205679
17121.61914 0.205601
17122.50000 0.205524
17123.38086 0.205446
17124.25977 0.205368
17125.13086 0.205292
17126.00977 0.205225
17126.89062 0.205159
17127.76953 0.205092
17128.65039 0.205026
17129.52930 0.204959
17130.40039 0.204887
17131.27930 0.204809
17132.16016 0.204731
17133.03906 0.204652
17133.91992 0.204574
17134.78906 0.204495
17135.66992 0.204427
17136.55078 0.204361
17137.42969 0.204295
17138.31055 0.20423
17139.18945 0.204164
17140.06055 0.204098
17140.93945 0.204033
17141.82031 0.203967
17142.69922 0.203901
17143.58008 0.203835
17144.46094 0.203769
17145.33984 0.20369
17146.22070 0.203588
17147.09961 0.203487
17147.97070 0.203385
17148.84961 0.203284
17149.73047 0.203182
17150.60938 0.203111
17151.49023 0.203053
17152.36914 0.202995
17153.25000 0.202936
17154.13086 0.202878
17155.00977 0.20282
17155.89062 0.20275
17156.76953 0.202681
17157.65039 0.202611
17158.52930 0.202542
17159.41016 0.202472
17160.28906 0.202396
17161.16992 0.202304
17162.03906 0.202212
17162.92969 0.202121
17163.80078 0.202029
17164.68945 0.201937
17165.56055 0.201857
17166.44922 0.201784
17167.32031 0.20171
17168.21094 0.201636
17169.08008 0.201563
17169.96094 0.201489
17170.84961 0.201411
17171.72070 0.201332
17172.60938 0.201253
17173.49023 0.201174
17174.36914 0.201096
17175.25000 0.201016
17176.13086 0.200932
17177.00977 0.200849
17177.89062 0.200765
17178.76953 0.200682
17179.65039 0.200599
17180.52930 0.200521
17181.41016 0.200449
17182.28906 0.200376
17183.16992 0.200303
17184.05078 0.20023
17184.93945 0.200156
17185.82031 0.200073
17186.69922 0.199988
17187.58008 0.199904
17188.46094 0.199819
17189.33984 0.199735
17190.22070 0.199652
17191.09961 0.199572
17191.98047 0.199491
17192.86914 0.199411
17193.75000 0.199331
17194.63086 0.199251
17195.50977 0.199167
17196.39062 0.19908
17197.26953 0.198994
17198.15039 0.198907
17199.03906 0.19882
17199.91992 0.198734
17200.80078 0.198652
17201.67969 0.19857
17202.56055 0.198488
17203.44922 0.198406
17204.33008 0.198324
17205.21094 0.198242
17206.08984 0.198158
17206.97070 0.198074
17207.85938 0.19799
17208.74023 0.197906
17209.61914 0.197821
17210.50000 0.197747
17211.38086 0.197681
17212.26953 0.197614
17213.15039 0.197548
17214.02930 0.197482
17214.91016 0.197415
17215.78906 0.19733
17216.67969 0.197242
17217.56055 0.197154
17218.43945 0.197066
17219.33008 0.196978
17220.21094 0.196894
17221.08984 0.196823
17221.97070 0.196752
17222.85938 0.196681
17223.74023 0.196609
17224.61914 0.196538
17225.50977 0.196453
17226.39062 0.196356
17227.26953 0.196259
17228.16016 0.196162
17229.03906 0.196065
17229.91992 0.195969
17230.80078 0.195888
17231.68945 0.195809
17232.57031 0.19573
17233.46094 0.195651
17234.33984 0.195572
17235.22070 0.195495
17236.10938 0.195429
17236.99023 0.195361
17237.86914 0.195294
17238.75977 0.195227
17239.64062 0.19516
17240.51953 0.195085
17241.41016 0.195005
17242.28906 0.194925
17243.17969 0.194845
17244.06055 0.194764
17244.93945 0.194684
17245.83008 0.194593
17246.71094 0.194501
17247.59961 0.194408
17248.48047 0.194316
17249.36914 0.194224
17250.25000 0.19414
17251.13086 0.194075
17252.01953 0.194011
17252.90039 0.193947
17253.78906 0.193883
17254.66992 0.193819
17255.55078 0.193746
17256.43945 0.193667
17257.32031 0.193589
17258.21094 0.19351
17259.08984 0.193432
17259.98047 0.193353
17260.85938 0.193268
17261.75000 0.193183
17262.63086 0.193097
17263.51953 0.193012
17264.40039 0.192927
17265.28906 0.192845
17266.16992 0.19277
17267.06055 0.192695
17267.93945 0.192621
17268.83008 0.192547
17269.71094 0.192472
17270.59961 0.192404
17271.48047 0.192339
17272.36914 0.192274
17273.25977 0.19221
17274.14062 0.192145
17275.02930 0.19208
17275.91016 0.192006
17276.80078 0.191933
17277.67969 0.191859
17278.57031 0.191786
17279.46094 0.191712
17280.33984 0.191637
17281.23047 0.19156
17282.10938 0.191483
17283.00000 0.191406
17283.88086 0.191328
17284.76953 0.191251
17285.66016 0.191173
17286.53906 0.191095
17287.42969 0.191016
17288.31055 0.190938
17289.19922 0.190859
17290.08984 0.190782
17290.97070 0.190714
17291.85938 0.190645
17292.75000 0.190577
17293.63086 0.190509
17294.51953 0.190441
17295.41016 0.190375
17296.28906 0.190312
17297.17969 0.190249
17298.07031 0.190187
17298.94922 0.190124
17299.83984 0.190061
17300.73047 0.189989
17301.60938 0.189916
17302.50000 0.189843
17303.39062 0.189769
17304.27930 0.189696
17305.16016 0.189625
17306.05078 0.189563
17306.93945 0.189502
17307.82031 0.189441
17308.71094 0.189379
17309.59961 0.189318
17310.49023 0.189253
17311.36914 0.189186
17312.25977 0.189118
17313.15039 0.18905
17314.03906 0.188983
17314.91992 0.188915
17315.81055 0.188851
17316.69922 0.188786
17317.58984 0.188722
17318.47070 0.188657
17319.35938 0.188593
17320.25000 0.188526
17321.14062 0.188451
17322.02930 0.188377
17322.91016 0.188302
17323.80078 0.188228
17324.68945 0.188153
17325.58008 0.188094
17326.46094 0.188045
17327.34961 0.187994
17328.24023 0.187944
17329.13086 0.187894
17330.01953 0.187843
17330.91016 0.187782
17331.78906 0.18772
17332.67969 0.187658
17333.57031 0.187596
17334.46094 0.187535
17335.34961 0.187476
17336.24023 0.187423
17337.13086 0.187369
17338.01953 0.187316
17338.90039 0.187262
17339.78906 0.187209
17340.67969 0.187159
17341.57031 0.187111
17342.46094 0.187063
17343.34961 0.187015
17344.24023 0.186966
17345.13086 0.186918
17346.01953 0.186868
17346.91016 0.186819
17347.78906 0.18677
17348.68945 0.18672
17349.57031 0.186671
17350.46094 0.186619
17351.34961 0.186564
17352.24023 0.186509
17353.13086 0.186454
17354.01953 0.186399
17354.91016 0.186345
17355.80078 0.186304
17356.68945 0.186264
17357.58008 0.186224
17358.47070 0.186184
17359.35938 0.186144
17360.25000 0.186109
17361.14062 0.186085
17362.02930 0.186061
17362.91992 0.186037
17363.81055 0.186013
17364.69922 0.185989
17365.58984 0.185959
17366.48047 0.185928
17367.36914 0.185896
17368.25977 0.185864
17369.15039 0.185833
17370.03906 0.1858
17370.92969 0.185761
17371.82031 0.185722
17372.71094 0.185683
17373.60938 0.185644
17374.50000 0.185604
17375.39062 0.185575
17376.27930 0.185558
17377.16992 0.185541
17378.06055 0.185524
17378.94922 0.185506
17379.83984 0.185489
17380.73047 0.185457
17381.61914 0.185422
17382.50977 0.185387
17383.40039 0.185352
17384.28906 0.185316
17385.18945 0.185285
17386.08008 0.185267
17386.97070 0.185249
17387.85938 0.185231
17388.75000 0.185213
17389.64062 0.185195
17390.53906 0.18518
17391.42969 0.185167
17392.32031 0.185153
17393.21094 0.18514
17394.09961 0.185127
17394.99023 0.185113
17395.88086 0.185126
17396.77930 0.185138
17397.66992 0.18515
17398.56055 0.185163
17399.44922 0.185175
17400.33984 0.185174
17401.24023 0.185151
17402.13086 0.185128
17403.01953 0.185104
17403.91016 0.185081
17404.80078 0.185058
17405.69922 0.185063
17406.58984 0.185075
17407.48047 0.185088
17408.36914 0.1851
17409.26953 0.185113
17410.16016 0.185124
17411.05078 0.185129
17411.93945 0.185133
17412.83984 0.185138
17413.73047 0.185142
17414.61914 0.185146
17415.50977 0.185156
17416.41016 0.185168
17417.30078 0.18518
17418.18945 0.185193
17419.08984 0.185205
17419.98047 0.185217
17420.86914 0.18523
17421.75977 0.185242
17422.66016 0.185255
17423.55078 0.185267
17424.43945 0.18528
17425.33984 0.1853
17426.23047 0.185332
17427.11914 0.185364
17428.01953 0.185396
17428.91016 0.185429
17429.80078 0.185461
17430.69922 0.185484
17431.58984 0.185505
17432.48047 0.185525
17433.38086 0.185546
17434.26953 0.185567
17435.16992 0.18559
17436.06055 0.185628
17436.94922 0.185665
17437.84961 0.185703
17438.74023 0.18574
17439.63086 0.185778
17440.52930 0.185816
17441.41992 0.185856
17442.32031 0.185896
17443.21094 0.185936
17444.10938 0.185976
17445.00000 0.186016
17445.89062 0.186057
17446.78906 0.186099
17447.67969 0.186141
17448.58008 0.186182
17449.47070 0.186224
17450.36914 0.186266
17451.25977 0.186308
17452.16016 0.18635
17453.05078 0.186392
17453.94922 0.186434
17454.83984 0.186476
17455.73047 0.186529
17456.63086 0.186586
17457.52930 0.186642
17458.41992 0.186699
17459.31055 0.186755
17460.21094 0.186811
17461.10938 0.186864
17462.00000 0.186917
17462.89062 0.18697
17463.78906 0.187024
17464.68945 0.187077
17465.58008 0.18713
17466.48047 0.187184
17467.36914 0.187238
17468.26953 0.187292
17469.16016 0.187345
17470.06055 0.187401
17470.94922 0.187476
17471.84961 0.187552
17472.74023 0.187628
17473.64062 0.187703
17474.53906 0.187779
17475.42969 0.187853
17476.33008 0.187924
17477.22070 0.187995
17478.11914 0.188066
17479.01953 0.188138
17479.91016 0.188209
17480.81055 0.188294
17481.71094 0.18838
17482.59961 0.188466
17483.50000 0.188552
17484.39062 0.188638
17485.28906 0.18872
17486.18945 0.188794
17487.08008 0.188868
17487.98047 0.188942
17488.86914 0.189016
17489.76953 0.18909
17490.66992 0.189172
17491.56055 0.189256
17492.46094 0.189341
17493.35938 0.189426
17494.25977 0.189511
17495.15039 0.189594
17496.05078 0.189668
17496.94922 0.189742
17497.83984 0.189816
17498.74023 0.18989
17499.64062 0.189964
17500.52930 0.190068
17501.42969 0.190192
17502.33008 0.190316
17503.22070 0.19044
17504.11914 0.190565
17505.01953 0.190688
17505.91992 0.19078
17506.81055 0.190872
17507.71094 0.190964
17508.60938 0.191056
17509.50977 0.191148
17510.40039 0.191251
17511.30078 0.191367
17512.19922 0.191483
17513.09961 0.191599
17514.00000 0.191715
17514.89062 0.191832
17515.78906 0.191921
17516.68945 0.192007
17517.58984 0.192093
17518.49023 0.192178
17519.38086 0.192264
17520.27930 0.192356
17521.17969 0.19246
17522.08008 0.192564
17522.98047 0.192669
17523.88086 0.192773
17524.76953 0.192878
17525.66992 0.192993
17526.57031 0.193112
17527.47070 0.193231
17528.36914 0.19335
17529.26953 0.193469
17530.16016 0.193587
17531.06055 0.1937
17531.96094 0.193812
17532.85938 0.193924
17533.75977 0.194037
17534.66016 0.194149
17535.56055 0.194271
17536.46094 0.194398
17537.35938 0.194526
17538.25000 0.194653
17539.15039 0.19478
17540.05078 0.194909
17540.94922 0.195045
17541.84961 0.195181
17542.75000 0.195317
17543.65039 0.195453
17544.55078 0.195589
17545.44922 0.19572
17546.34961 0.195845
17547.25000 0.195969
17548.15039 0.196094
17549.03906 0.196219
17549.94922 0.196344
17550.84961 0.196477
17551.74023 0.196611
17552.64062 0.196744
17553.53906 0.196878
17554.43945 0.197012
17555.33984 0.197143
17556.24023 0.19727
17557.14062 0.197398
17558.03906 0.197525
17558.93945 0.197652
17559.83984 0.197779
17560.74023 0.197919
17561.64062 0.198063
17562.53906 0.198206
17563.44922 0.198349
17564.34961 0.198492
17565.25000 0.198635
17566.15039 0.19878
17567.05078 0.198924
17567.94922 0.199069
17568.84961 0.199213
17569.75000 0.199358
17570.65039 0.199512
17571.55078 0.199669
17572.44922 0.199826
17573.34961 0.199984
17574.25000 0.200142
17575.15039 0.200298
17576.05078 0.200447
17576.96094 0.200596
17577.85938 0.200745
17578.75977 0.200894
17579.66016 0.201043
17580.56055 0.201198
17581.46094 0.201357
17582.35938 0.201515
17583.25977 0.201674
17584.16992 0.201833
17585.07031 0.20199
17585.97070 0.202125
17586.86914 0.202261
17587.76953 0.202396
17588.66992 0.202532
17589.57031 0.202667
17590.48047 0.202811
17591.38086 0.202963
17592.27930 0.203115
17593.17969 0.203266
17594.08008 0.203418
17594.99023 0.20357
17595.89062 0.203745
17596.78906 0.20392
17597.68945 0.204095
17598.58984 0.20427
17599.50000 0.204446
17600.40039 0.204616
17601.30078 0.20478
17602.19922 0.204944
17603.10938 0.205108
17604.00977 0.205272
17604.91016 0.205436
17605.81055 0.205605
17606.71094 0.205776
17607.61914 0.205946
17608.51953 0.206117
17609.41992 0.206287
17610.33008 0.206452
17611.23047 0.206607
17612.13086 0.206762
17613.03906 0.206917
17613.93945 0.207072
17614.83984 0.207227
17615.74023 0.207387
17616.65039 0.207548
17617.55078 0.207709
17618.44922 0.207871
17619.35938 0.208032
17620.25977 0.208195
17621.16016 0.208364
17622.07031 0.208532
17622.97070 0.2087
17623.86914 0.208869
17624.77930 0.209037
17625.67969 0.209199
17626.58008 0.209358
17627.49023 0.209517
17628.39062 0.209677
17629.28906 0.209837
17630.19922 0.209997
17631.09961 0.210162
17632.00977 0.210327
17632.91016 0.210492
17633.81055 0.210656
17634.72070 0.210822
17635.61914 0.210987
17636.52930 0.211152
17637.42969 0.211317
17638.33008 0.211482
17639.24023 0.211647
17640.14062 0.211808
17641.05078 0.211949
17641.94922 0.21209
17642.85938 0.21223
17643.75977 0.212371
17644.66016 0.212512
17645.57031 0.212649
17646.47070 0.212785
17647.38086 0.212922
17648.27930 0.213058
17649.18945 0.213194
17650.08984 0.213335
17651.00000 0.213522
17651.90039 0.213709
17652.81055 0.213895
17653.71094 0.214082
17654.61914 0.214269
17655.51953 0.214417
17656.42969 0.214535
17657.33008 0.214654
17658.24023 0.214772
17659.14062 0.214891
17660.05078 0.215011
17660.94922 0.21516
17661.85938 0.215308
17662.75977 0.215457
17663.66992 0.215606
17664.57031 0.215754
17665.48047 0.215888
17666.39062 0.216008
17667.28906 0.216128
17668.19922 0.216248
17669.09961 0.216368
17670.00977 0.216488
17670.91016 0.216625
17671.82031 0.216762
17672.73047 0.216899
17673.63086 0.217036
17674.53906 0.217173
17675.44922 0.217295
17676.34961 0.2174
17677.25977 0.217505
17678.16016 0.21761
17679.07031 0.217715
17679.97070 0.21782
17680.88086 0.217931
17681.78906 0.218042
17682.69922 0.218153
17683.59961 0.218264
17684.50977 0.218375
17685.41016 0.218477
17686.32031 0.218568
17687.23047 0.21866
17688.13086 0.218751
17689.03906 0.218842
17689.94922 0.218933
17690.85938 0.21903
17691.75977 0.219128
17692.66992 0.219226
17693.58008 0.219325
17694.48047 0.219422
17695.39062 0.219517
17696.30078 0.219606
17697.19922 0.219695
17698.10938 0.219784
17699.01953 0.219873
17699.92969 0.219962
17700.83008 0.220023
17701.74023 0.220082
17702.65039 0.220141
17703.56055 0.220199
17704.46094 0.220258
17705.36914 0.22031
17706.27930 0.220353
17707.18945 0.220396
17708.08984 0.220439
17709.00000 0.220482
17709.91016 0.220525
17710.82031 0.22058
17711.72070 0.220636
17712.63086 0.220692
17713.53906 0.220747
17714.44922 0.220803
17715.35938 0.220843
17716.26953 0.22086
17717.16992 0.220876
17718.08008 0.220892
17718.99023 0.220908
17719.90039 0.220924
17720.81055 0.220943
17721.71094 0.220962
17722.63086 0.220981
17723.52930 0.221
17724.43945 0.221019
17725.34961 0.221028
17726.25977 0.22102
17727.16992 0.221011
17728.08008 0.221003
17728.98047 0.220995
17729.89062 0.220986
17730.80078 0.220979
17731.71094 0.220972
17732.61914 0.220965
17733.52930 0.220959
17734.43945 0.220952
17735.34961 0.220935
17736.25977 0.220901
17737.16992 0.220867
17738.08008 0.220833
17738.98047 0.220799
17739.89062 0.220765
17740.80078 0.220724
17741.71094 0.220681
17742.61914 0.220638
17743.52930 0.220596
17744.43945 0.220553
17745.34961 0.2205
17746.25977 0.220432
17747.16992 0.220364
17748.08008 0.220296
17748.99023 0.220228
17749.90039 0.22016
17750.81055 0.220083
17751.72070 0.220004
17752.63086 0.219925
17753.53906 0.219846
17754.44922 0.219768
17755.35938 0.219682
17756.26953 0.219587
17757.17969 0.219492
17758.08984 0.219397
17759.00000 0.219302
17759.91016 0.219206
17760.82031 0.21908
17761.73047 0.218951
17762.64062 0.218821
17763.55078 0.218691
17764.46094 0.218562
17765.38086 0.21843
17766.28906 0.218295
17767.19922 0.21816
17768.10938 0.218024
17769.01953 0.217889
17769.92969 0.217754
17770.83984 0.217605
17771.75000 0.217455
17772.66016 0.217306
17773.57031 0.217156
17774.48047 0.217006
17775.40039 0.216855
17776.31055 0.216703
17777.22070 0.21655
17778.13086 0.216397
17779.03906 0.216244
17779.94922 0.216091
17780.86914 0.215889
17781.77930 0.215685
17782.68945 0.215479
17783.59961 0.215274
17784.50977 0.21507
17785.41992 0.214866
17786.33008 0.214664
17787.25000 0.214461
17788.16016 0.214259
17789.07031 0.214057
17789.98047 0.213855
17790.89062 0.2136
17791.80078 0.213345
17792.72070 0.213089
17793.63086 0.212833
17794.53906 0.212576
17795.46094 0.212323
17796.36914 0.212074
17797.27930 0.211825
17798.18945 0.211575
17799.09961 0.211326
17800.01953 0.211077
17800.92969 0.210811
17801.83984 0.210545
17802.75000 0.21028
17803.66992 0.210014
17804.58008 0.209749
17805.49023 0.209465
17806.40039 0.209168
17807.32031 0.20887
17808.23047 0.208572
17809.14062 0.208274
17810.06055 0.207975
17810.97070 0.207674
17811.88086 0.207372
17812.78906 0.207071
17813.71094 0.206769
17814.61914 0.206467
17815.53906 0.206145
17816.44922 0.205808
17817.35938 0.205471
17818.27930 0.205133
17819.18945 0.204797
17820.09961 0.204455
17821.01953 0.20408
17821.92969 0.203705
17822.83984 0.203331
17823.75977 0.202956
17824.66992 0.202581
17825.58008 0.2022
17826.50000 0.201815
17827.41016 0.20143
17828.33008 0.201045
17829.24023 0.200661
17830.15039 0.200276
17831.07031 0.199889
17831.98047 0.199503
17832.90039 0.199115
17833.81055 0.198729
17834.72070 0.198342
17835.64062 0.197948
17836.55078 0.197551
17837.47070 0.197155
17838.38086 0.196758
17839.28906 0.19636
17840.21094 0.195955
17841.11914 0.195523
17842.03906 0.195091
17842.96094 0.194659
17843.86914 0.194227
17844.77930 0.193795
17845.69922 0.193335
17846.60938 0.192867
17847.52930 0.1924
17848.43945 0.191931
17849.35938 0.191463
17850.26953 0.190985
17851.18945 0.190485
17852.09961 0.189983
17853.01953 0.189483
17853.92969 0.188982
17854.84961 0.18848
17855.75977 0.187988
17856.67969 0.187496
17857.59961 0.187004
17858.50977 0.186513
17859.42969 0.186022
17860.33984 0.185523
17861.25977 0.185015
17862.16992 0.184507
17863.08984 0.183999
17864.00000 0.18349
17864.91992 0.182982
17865.83984 0.182465
17866.75000 0.181947
17867.66992 0.181429
17868.58008 0.180912
17869.50000 0.180394
17870.41992 0.179861
17871.33008 0.179311
17872.25000 0.178761
17873.16016 0.17821
17874.08008 0.17766
17875.00000 0.177109
17875.91016 0.17657
17876.83008 0.17603
17877.75000 0.175491
17878.66016 0.174953
17879.58008 0.174413
17880.50000 0.173834
17881.41016 0.173222
17882.33008 0.17261
17883.25000 0.171997
17884.16016 0.171385
17885.08008 0.170774
17886.00000 0.170178
17886.91016 0.169584
17887.83008 0.168988
17888.75000 0.168393
17889.66016 0.167796
17890.58008 0.167192
17891.50000 0.16658
17892.41992 0.165968
17893.33008 0.165358
17894.25000 0.164746
17895.16992 0.164137
17896.08008 0.16354
17897.00000 0.162941
17897.91992 0.162343
17898.83984 0.161746
17899.75000 0.161147
17900.66992 0.160542
17901.58984 0.159934
17902.50977 0.159325
17903.42969 0.158717
17904.33984 0.158109
17905.25977 0.157484
17906.17969 0.156817
17907.09961 0.15615
17908.01953 0.155484
17908.92969 0.154817
17909.84961 0.15415
17910.76953 0.153496
17911.68945 0.152844
17912.60938 0.152192
17913.51953 0.15154
17914.43945 0.150888
17915.35938 0.15022
17916.27930 0.149526
17917.19922 0.148833
17918.11914 0.148141
17919.03906 0.147446
17919.94922 0.146754
17920.86914 0.146075
17921.78906 0.145396
17922.71094 0.144719
17923.63086 0.144041
17924.55078 0.143362
17925.46094 0.142694
17926.38086 0.142034
17927.30078 0.141375
17928.22070 0.140715
17929.14062 0.140056
17930.06055 0.139396
17930.98047 0.138731
17931.90039 0.138067
17932.82031 0.137402
17933.74023 0.136736
17934.66016 0.136073
17935.58008 0.135392
17936.50000 0.134701
17937.41992 0.134011
17938.33008 0.133322
17939.25000 0.132632
17940.16992 0.131941
17941.08984 0.131251
17942.00977 0.130561
17942.92969 0.129871
17943.84961 0.129181
17944.76953 0.128491
17945.68945 0.127793
17946.60938 0.127093
17947.52930 0.126393
17948.44922 0.125692
17949.36914 0.124992
17950.28906 0.124285
17951.21094 0.123565
17952.13086 0.122844
17953.05078 0.122122
17953.97070 0.121401
17954.89062 0.12068
17955.81055 0.119998
17956.74023 0.11932
17957.66016 0.118643
17958.58008 0.117966
17959.50000 0.117287
17960.41992 0.11661
17961.33984 0.115933
17962.25977 0.115254
17963.17969 0.114577
17964.09961 0.113898
17965.01953 0.113221
17965.93945 0.11255
17966.85938 0.111882
17967.78906 0.111211
17968.71094 0.110541
17969.63086 0.109872
17970.55078 0.1092
17971.47070 0.108526
17972.39062 0.107854
17973.31055 0.10718
17974.23047 0.106507
17975.16016 0.105836
17976.08008 0.105178
17977.00000 0.10452
17977.91992 0.103861
17978.83984 0.103203
17979.75977 0.102544
17980.68945 0.101862
17981.60938 0.101173
17982.52930 0.100483
17983.44922 0.099794
17984.36914 0.099104
17985.28906 0.098424
17986.22070 0.097763
17987.14062 0.097103
17988.06055 0.096442
17988.98047 0.095781
17989.90039 0.095121
17990.83008 0.094475
17991.75000 0.09383
17992.66992 0.093187
17993.58984 0.092543
17994.51953 0.091899
17995.43945 0.091266
17996.35938 0.090646
17997.27930 0.090026
17998.21094 0.089405
17999.13086 0.088786
18000.05078 0.088165
18000.97070 0.08755
18001.90039 0.086936
18002.82031 0.08632
18003.74023 0.085705
18004.66992 0.085089
18005.58984 0.084468
18006.50977 0.083844
18007.43945 0.08322
18008.35938 0.082597
18009.27930 0.081972
18010.21094 0.081346
18011.13086 0.080711
18012.05078 0.080079
18012.97070 0.079444
18013.90039 0.07881
18014.82031 0.078176
18015.74023 0.077562
18016.66992 0.076952
18017.58984 0.076341
18018.51953 0.075731
18019.43945 0.07512
18020.35938 0.074534
18021.28906 0.073983
18022.21094 0.073433
18023.13086 0.072883
18024.06055 0.072333
18024.98047 0.071783
18025.91016 0.071229
18026.83008 0.070675
18027.75977 0.07012
18028.67969 0.069566
18029.59961 0.069012
18030.52930 0.068485
18031.44922 0.067977
18032.38086 0.067469
18033.30078 0.066962
18034.22070 0.066455
18035.15039 0.065946
18036.07031 0.065434
18037.00000 0.064922
18037.91992 0.064409
18038.84961 0.063898
18039.76953 0.063385
18040.69922 0.062868
18041.61914 0.062348
18042.55078 0.06183
18043.47070 0.06131
18044.40039 0.06079
18045.32031 0.060276
18046.25000 0.059769
18047.16992 0.059262
18048.09961 0.058755
18049.01953 0.058248
18049.94922 0.05774
18050.86914 0.057276
18051.80078 0.056813
18052.72070 0.056351
18053.65039 0.055888
18054.58008 0.055425
18055.50000 0.054966
18056.42969 0.054508
18057.34961 0.05405
18058.27930 0.053592
18059.19922 0.053135
18060.13086 0.052679
18061.05078 0.052239
18061.98047 0.051798
18062.91016 0.051357
18063.83008 0.050916
18064.75977 0.050475
18065.68945 0.050038
18066.60938 0.049602
18067.53906 0.049166
18068.46094 0.04873
18069.39062 0.048293
18070.32031 0.047868
18071.24023 0.047465
18072.16992 0.04706
18073.09961 0.046657
18074.01953 0.046254
18074.94922 0.04585
18075.88086 0.045436
18076.80078 0.045021
18077.73047 0.044605
18078.65039 0.044191
18079.58008 0.043775
18080.50977 0.043395
18081.43945 0.043046
18082.35938 0.042695
18083.28906 0.042345
18084.22070 0.041995
18085.14062 0.041643
18086.07031 0.041289
18087.00000 0.040935
18087.92969 0.04058
18088.84961 0.040226
18089.77930 0.039871
18090.71094 0.039533
18091.63086 0.039199
18092.56055 0.038865
18093.49023 0.038532
18094.41992 0.038199
18095.33984 0.037864
18096.26953 0.037528
18097.19922 0.037191
18098.13086 0.036855
18099.05078 0.036518
18099.98047 0.036182
18100.91016 0.035876
18101.83984 0.035572
18102.76953 0.035268
18103.69922 0.034964
18104.61914 0.03466
18105.55078 0.034339
18106.48047 0.034008
18107.41016 0.033675
18108.33984 0.033343
18109.25977 0.033012
18110.18945 0.032687
18111.11914 0.032391
18112.05078 0.032095
18112.98047 0.031799
18113.91016 0.031503
18114.83984 0.031207
18115.75977 0.030925
18116.68945 0.030646
18117.61914 0.030366
18118.55078 0.030086
18119.48047 0.029807
18120.41016 0.029544
18121.33984 0.029303
18122.26953 0.029061
18123.19922 0.028819
18124.11914 0.028578
18125.05078 0.028337
18125.98047 0.028104
18126.91016 0.027871
18127.83984 0.027638
18128.76953 0.027405
18129.69922 0.027172
18130.63086 0.026918
18131.56055 0.026654
18132.49023 0.02639
18133.41992 0.026127
18134.34961 0.025864
18135.27930 0.025614
18136.21094 0.025396
18137.13086 0.025178
18138.06055 0.024961
18139.00000 0.024743
18139.92969 0.024525
18140.85938 0.024322
18141.78906 0.02412
18142.71094 0.023917
18143.64062 0.023715
18144.57031 0.023513
18145.50977 0.023305
18146.43945 0.023093
18147.36914 0.022882
18148.30078 0.02267
18149.23047 0.022459
18150.16016 0.022248
18151.08984 0.02204
18152.01953 0.021833
18152.94922 0.021626
18153.88086 0.021419
18154.81055 0.021212
18155.74023 0.021003
18156.66992 0.020794
18157.59961 0.020586
18158.52930 0.020377
18159.46094 0.020168
18160.39062 0.019982
18161.33008 0.019825
18162.25977 0.019669
18163.18945 0.019513
18164.11914 0.019356
18165.05078 0.0192
18165.98047 0.019041
18166.91016 0.018881
18167.83984 0.018722
18168.77930 0.018563
18169.71094 0.018404
18170.64062 0.01824
18171.57031 0.018074
18172.50000 0.017908
18173.42969 0.017742
18174.35938 0.017576
18175.28906 0.017413
18176.23047 0.017259
18177.16016 0.017104
18178.08984 0.016949
18179.01953 0.016795
18179.96094 0.01664
18180.89062 0.016516
18181.82031 0.016393
18182.75000 0.01627
18183.67969 0.016147
18184.61914 0.016024
18185.55078 0.01589
18186.48047 0.015748
18187.41016 0.015606
18188.33984 0.015464
18189.27930 0.015322
18190.21094 0.015182
18191.14062 0.015052
18192.07031 0.014922
18193.00977 0.014792
18193.93945 0.014662
18194.86914 0.014531
18195.80078 0.014405
18196.74023 0.014279
18197.66992 0.014153
18198.59961 0.014027
18199.53906 0.013901
18200.47070 0.013781
18201.40039 0.013666
18202.33984 0.013551
18203.26953 0.013436
18204.19922 0.013322
18205.13086 0.013202
18206.07031 0.013052
18207.00000 0.012902
18207.93945 0.012753
18208.86914 0.012603
18209.80078 0.012453
18210.74023 0.012339
18211.66992 0.012234
18212.59961 0.012128
18213.53906 0.012023
18214.47070 0.011918
18215.40039 0.011822
18216.33984 0.011736
18217.26953 0.011651
18218.21094 0.011566
18219.14062 0.011481
18220.07031 0.011393
18221.00977 0.01128
18221.93945 0.011167
18222.86914 0.011054
18223.81055 0.01094
18224.74023 0.010827
18225.67969 0.010751
18226.60938 0.010688
18227.55078 0.010625
18228.48047 0.010563
18229.41992 0.0105
18230.34961 0.010418
18231.28906 0.010303
18232.22070 0.010188
18233.15039 0.010073
18234.08984 0.009958
18235.01953 0.009844
18235.96094 0.009778
18236.89062 0.009712
18237.83008 0.009646
18238.75977 0.009579
18239.69922 0.009513
18240.63086 0.009444
18241.57031 0.009373
18242.50000 0.009303
18243.43945 0.009232
18244.36914 0.009162
18245.31055 0.009085
18246.24023 0.008996
18247.17969 0.008907
18248.11914 0.008817
18249.05078 0.008728
18249.99023 0.008639
18250.91992 0.008577
18251.85938 0.008515
18252.78906 0.008454
18253.73047 0.008392
18254.66016 0.008331
18255.59961 0.008235
18256.53906 0.00812
18257.47070 0.008005
18258.41016 0.00789
18259.33984 0.007775
18260.27930 0.007683
18261.22070 0.007648
18262.15039 0.007613
18263.08984 0.007578
18264.02930 0.007542
18264.96094 0.007507
18265.90039 0.007455
18266.83008 0.007403
18267.76953 0.00735
18268.71094 0.007297
18269.64062 0.007244
18270.58008 0.007188
18271.51953 0.007129
18272.44922 0.00707
18273.39062 0.007011
18274.33008 0.006952
18275.25977 0.006896
18276.19922 0.006851
18277.14062 0.006805
18278.07031 0.006759
18279.00977 0.006713
18279.94922 0.006667
18280.88086 0.006624
18281.82031 0.006581
18282.75977 0.006538
18283.69922 0.006495
18284.63086 0.006453
18285.57031 0.006405
18286.50977 0.006354
18287.44922 0.006303
18288.38086 0.006253
18289.32031 0.006202
18290.25977 0.00615
18291.19922 0.006095
18292.13086 0.00604
18293.07031 0.005985
18294.00977 0.00593
18294.94922 0.005875
18295.88086 0.005831
18296.82031 0.005788
18297.75977 0.005745
18298.69922 0.005702
18299.64062 0.005659
18300.58008 0.005603
18301.50977 0.005539
18302.44922 0.005475
18303.39062 0.005411
18304.33008 0.005348
18305.26953 0.005288
18306.21094 0.005238
18307.14062 0.005188
18308.08008 0.005138
18309.01953 0.005088
18309.96094 0.005039
18310.90039 0.005031
18311.83984 0.005025
18312.77930 0.005018
18313.71094 0.005012
18314.65039 0.005006
18315.58984 0.004966
18316.52930 0.004906
18317.47070 0.004846
18318.41016 0.004786
18319.34961 0.004726
18320.28906 0.004677
18321.23047 0.004652
18322.16992 0.004628
18323.10938 0.004603
18324.03906 0.004579
18324.98047 0.004554
18325.91992 0.004516
18326.85938 0.004477
18327.80078 0.004438
18328.74023 0.0044
18329.67969 0.004361
18330.61914 0.00433
18331.56055 0.004304
18332.50000 0.004277
18333.43945 0.00425
18334.38086 0.004224
18335.32031 0.004189
18336.25977 0.00414
18337.19922 0.004091
18338.14062 0.004042
18339.08008 0.003993
18340.01953 0.003945
18340.96094 0.00393
18341.90039 0.003915
18342.83984 0.003899
18343.77930 0.003884
18344.72070 0.003869
18345.66016 0.00385
18346.59961 0.003829
18347.53906 0.003809
18348.48047 0.003788
18349.41992 0.003768
18350.36914 0.003747
18351.30078 0.003725
18352.25000 0.003704
18353.18945 0.003682
18354.13086 0.003661
18355.07031 0.003639
18356.00977 0.003613
18356.94922 0.003588
18357.89062 0.003563
18358.83008 0.003538
18359.76953 0.003512
18360.71094 0.003479
18361.66016 0.003444
18362.59961 0.003409
18363.53906 0.003373
18364.48047 0.003338
18365.41992 0.003306
18366.35938 0.003278
18367.30078 0.003249
18368.25000 0.003221
18369.18945 0.003193
18370.13086 0.003165
18371.07031 0.003137
18372.00977 0.003109
18372.96094 0.003081
18373.90039 0.003053
18374.83984 0.003025
18375.77930 0.003001
18376.72070 0.002977
18377.66016 0.002954
18378.60938 0.00293
18379.55078 0.002907
18380.49023 0.002892
18381.42969 0.002884
18382.38086 0.002877
18383.32031 0.002869
18384.25977 0.002862
18385.19922 0.002849
18386.14062 0.002817
18387.08984 0.002786
18388.02930 0.002754
18388.97070 0.002722
18389.91992 0.00269
18390.85938 0.002697
18391.80078 0.002707
18392.74023 0.002717
18393.68945 0.002727
18394.63086 0.002737
18395.57031 0.002712
18396.51953 0.002664
18397.46094 0.002617
18398.40039 0.002569
18399.34961 0.002522
18400.28906 0.002488
18401.23047 0.002484
18402.17969 0.002481
18403.11914 0.002477
18404.06055 0.002474
18405.00977 0.00247
18405.94922 0.002438
18406.89062 0.002406
18407.83984 0.002374
18408.77930 0.002342
18409.72070 0.002309
18410.66992 0.00229
18411.60938 0.002275
18412.55078 0.00226
18413.50000 0.002245
18414.43945 0.002231
18415.39062 0.002213
18416.33008 0.002192
18417.27930 0.00217
18418.22070 0.002148
18419.16016 0.002127
18420.10938 0.002108
18421.05078 0.002111
18422.00000 0.002114
18422.93945 0.002118
18423.88086 0.002121
18424.83008 0.002124
18425.76953 0.002116
18426.72070 0.002105
18427.66016 0.002095
18428.60938 0.002084
18429.55078 0.002073
18430.50000 0.002055
18431.43945 0.002031
18432.39062 0.002007
18433.33008 0.001983
18434.27930 0.001959
18435.22070 0.001944
18436.16992 0.00196
18437.10938 0.001975
18438.06055 0.001991
18439.00000 0.002007
18439.94922 0.002023
18440.89062 0.00204
18441.83984 0.002058
18442.77930 0.002075
18443.73047 0.002093
18444.67969 0.00211
18445.61914 0.002068
18446.57031 0.001994
18447.50977 0.001921
18448.46094 0.001847
18449.40039 0.001774
18450.34961 0.001725
18451.28906 0.001717
18452.24023 0.001709
18453.18945 0.001701
18454.13086 0.001693
18455.08008 0.001685
18456.02930 0.001685
18456.97070 0.001684
18457.91992 0.001683
18458.85938 0.001682
18459.81055 0.001682
18460.75977 0.001659
18461.69922 0.001632
18462.65039 0.001604
18463.59961 0.001576
18464.53906 0.001549
18465.49023 0.001541
18466.43945 0.001552
18467.38086 0.001563
18468.33008 0.001574
18469.27930 0.001584
18470.22070 0.001591
18471.16992 0.001584
18472.11914 0.001577
18473.06055 0.00157
18474.00977 0.001563
18474.96094 0.001556
18475.90039 0.001535
18476.84961 0.001513
18477.80078 0.001492
18478.75000 0.00147
18479.68945 0.001448
18480.64062 0.001427
18481.58984 0.001406
18482.53906 0.001385
18483.48047 0.001363
18484.42969 0.001342
18485.38086 0.001333
18486.32031 0.001343
18487.26953 0.001352
18488.22070 0.001362
18489.16992 0.001371
18490.11914 0.001376
18491.06055 0.001348
18492.00977 0.001319
18492.96094 0.001291
18493.91016 0.001262
18494.85938 0.001234
18495.80078 0.001246
18496.75000 0.001266
18497.69922 0.001286
18498.65039 0.001305
18499.59961 0.001325
18500.53906 0.001312
18501.49023 0.001275
18502.43945 0.001238
18503.39062 0.001201
18504.33984 0.001165
18505.28906 0.001144
18506.24023 0.001161
18507.18945 0.001178
18508.13086 0.001195
18509.08008 0.001211
18510.02930 0.001227
18510.98047 0.001215
18511.92969 0.001202
18512.88086 0.00119
18513.83008 0.001177
18514.77930 0.001165
18515.73047 0.001168
18516.67969 0.001175
18517.63086 0.001183
18518.57031 0.001191
18519.51953 0.001198
18520.47070 0.001185
18521.41992 0.001153
18522.36914 0.00112
18523.32031 0.001087
18524.26953 0.001054
18525.22070 0.001032
18526.16992 0.001046
18527.11914 0.001061
18528.07031 0.001075
18529.01953 0.00109
18529.97070 0.001104
18530.91992 0.001096
18531.86914 0.001087
18532.82031 0.001078
18533.76953 0.001069
18534.72070 0.00106
18535.66992 0.001081
18536.61914 0.001113
18537.57031 0.001145
18538.51953 0.001177
18539.47070 0.001209
18540.41992 0.001207
18541.36914 0.001163
18542.32031 0.001119
18543.26953 0.001075
18544.22070 0.001031
18545.16992 0.00099
18546.11914 0.000962
18547.07031 0.000935
18548.02930 0.000907
18548.98047 0.00088
18549.92969 0.000853
18550.88086 0.000866
18551.83008 0.000883
18552.77930 0.0009
18553.73047 0.000917
18554.67969 0.000934
18555.63086 0.000939
18556.58984 0.000937
18557.53906 0.000936
18558.49023 0.000935
18559.43945 0.000934
18560.39062 0.000936
18561.33984 0.000943
18562.28906 0.000951
18563.24023 0.000958
18564.19922 0.000966
18565.15039 0.000969
18566.09961 0.00095
18567.05078 0.000931
18568.00000 0.000912
18568.96094 0.000893
18569.91016 0.000874
18570.85938 0.000872
18571.81055 0.000872
18572.75977 0.000872
18573.71094 0.000872
18574.66992 0.000872
18575.61914 0.000861
18576.57031 0.000845
18577.52930 0.000829
18578.48047 0.000813
18579.42969 0.000796
18580.38086 0.000789
18581.33008 0.000795
18582.28906 0.000801
18583.24023 0.000806
18584.18945 0.000812
18585.14062 0.000816
18586.09961 0.000806
18587.05078 0.000796
18588.00000 0.000787
18588.96094 0.000777
18589.91016 0.000768
18590.85938 0.000758
18591.81055 0.000748
18592.76953 0.000738
18593.72070 0.000728
18594.66992 0.000719
18595.63086 0.000713
18596.58008 0.000709
18597.53906 0.000706
18598.49023 0.000702
18599.43945 0.000699
18600.39062 0.000693
18601.34961 0.000683
18602.30078 0.000674
18603.25977 0.000665
18604.21094 0.000655
18605.16016 0.000648
18606.11914 0.00065
18607.07031 0.000653
18608.01953 0.000656
18608.98047 0.000658
18609.92969 0.000661
18610.89062 0.000641
18611.83984 0.000619
18612.78906 0.000597
18613.75000 0.000576
18614.69922 0.000554
18615.66016 0.000567
18616.60938 0.000595
18617.57031 0.000623
18618.51953 0.000652
18619.47070 0.00068
18620.42969 0.000691
18621.38086 0.00068
18622.33984 0.000668
18623.28906 0.000657
18624.25000 0.000646
18625.19922 0.000632
18626.16016 0.000607
18627.10938 0.000582
18628.07031 0.000557
18629.01953 0.000531
18629.98047 0.000506
18630.92969 0.000567
18631.89062 0.000629
18632.83984 0.000691
18633.80078 0.000754
18634.75000 0.000816
18635.71094 0.000803
18636.66016 0.000762
18637.61914 0.000722
18638.57031 0.000682
18639.52930 0.000642
18640.48047 0.000622
18641.43945 0.000624
18642.40039 0.000626
18643.34961 0.000627
18644.31055 0.000629
18645.25977 0.000635
18646.22070 0.000652
18647.17969 0.00067
18648.13086 0.000688
18649.08984 0.000705
18650.03906 0.000721
18651.00000 0.000697
18651.96094 0.000672
18652.91016 0.000648
18653.86914 0.000624
18654.82031 0.000599
18655.77930 0.000582
18656.74023 0.000567
18657.68945 0.000552
18658.65039 0.000537
18659.60938 0.000522
18660.56055 0.000517
18661.51953 0.000521
18662.48047 0.000524
18663.42969 0.000527
18664.39062 0.000531
18665.34961 0.000529
18666.30078 0.000518
18667.25977 0.000508
18668.22070 0.000497
18669.16992 0.000486
18670.13086 0.000477
18671.08984 0.000479
18672.03906 0.00048
18673.00000 0.000482
18673.96094 0.000483
18674.91992 0.000485
18675.88086 0.00049
18676.83008 0.000495
18677.78906 0.0005
18678.75000 0.000506
18679.71094 0.000511
18680.66016 0.000516
18681.61914 0.000522
18682.58008 0.000527
18683.53906 0.000532
18684.49023 0.000537
18685.44922 0.000537
18686.41016 0.000529
18687.36914 0.000521
18688.32031 0.000514
18689.27930 0.000506
18690.24023 0.000496
18691.19922 0.000481
18692.16016 0.000465
18693.11914 0.00045
18694.07031 0.000434
18695.02930 0.00042
18695.99023 0.000438
18696.94922 0.000457
18697.91016 0.000476
18698.86914 0.000495
18699.82031 0.000514
18700.77930 0.000504
18701.74023 0.000487
18702.69922 0.000471
18703.66016 0.000454
18704.61914 0.000438
18705.58008 0.000418
20576.13867 0.0
