# %ECSV 0.9
# ---
# datatype:
# - {name: wavelength, unit: Angstrom, datatype: float32}
# - {name: response, datatype: float32}
# meta: !!omap
# - {band_name: F625W}
# - {group_name: WFC3_UVIS1}
wavelength response
4841.73096 0.0
5379.70117 0.000404
5380.62109 0.000421
5381.54199 0.000438
5382.46191 0.000467
5383.38379 0.000495
5384.30518 0.000523
5385.22607 0.000551
5386.14697 0.000579
5387.06885 0.000608
5387.99023 0.000636
5388.91211 0.000664
5389.83398 0.000692
5390.75586 0.000721
5391.67920 0.000753
5392.60107 0.000803
5393.52393 0.000853
5394.44678 0.000903
5395.37012 0.000953
5396.29297 0.001003
5397.21582 0.001053
5398.14014 0.001103
5399.06299 0.001153
5399.98682 0.001203
5400.91113 0.001253
5401.83496 0.001319
5402.75879 0.00141
5403.68408 0.001502
5404.60791 0.001594
5405.53320 0.001686
5406.45801 0.001777
5407.38281 0.001869
5408.30811 0.001961
5409.23291 0.002053
5410.15918 0.002144
5411.08398 0.002236
5412.00977 0.002368
5412.93604 0.002532
5413.86182 0.002697
5414.78906 0.002861
5415.71484 0.003026
5416.64209 0.00319
5417.56787 0.003355
5418.49512 0.003519
5419.42188 0.003684
5420.35010 0.003848
5421.27686 0.004013
5422.20508 0.004275
5423.13184 0.00457
5424.06006 0.004864
5424.98779 0.005159
5425.91602 0.005453
5426.84521 0.005748
5427.77295 0.006043
5428.70215 0.006337
5429.62988 0.006632
5430.56006 0.006927
5431.48877 0.007222
5432.41797 0.007763
5433.34717 0.008309
5434.27686 0.008855
5435.20703 0.009401
5436.13721 0.009948
5437.06689 0.010495
5437.99707 0.011041
5438.92676 0.011588
5439.85791 0.012135
5440.78906 0.012682
5441.72021 0.013329
5442.65088 0.014327
5443.58203 0.015325
5444.51318 0.016322
5445.44482 0.01732
5446.37598 0.018318
5447.30811 0.019316
5448.24023 0.020315
5449.17188 0.021313
5450.10498 0.022312
5451.03711 0.023311
5451.97021 0.024665
5452.90283 0.026394
5453.83594 0.028123
5454.76904 0.029852
5455.70215 0.031581
5456.63623 0.03331
5457.56885 0.03504
5458.50293 0.036769
5459.43701 0.038499
5460.37109 0.04023
5461.30518 0.04196
5462.24023 0.044444
5463.17383 0.047149
5464.10889 0.049854
5465.04395 0.05256
5465.97900 0.055265
5466.91406 0.057973
5467.84912 0.060679
5468.78516 0.063386
5469.72119 0.066095
5470.65576 0.068802
5471.59180 0.071592
5472.52783 0.075365
5473.46484 0.079139
5474.40088 0.082913
5475.33789 0.086687
5476.27490 0.090463
5477.21191 0.094239
5478.14893 0.098014
5479.08594 0.101789
5480.02295 0.105566
5480.96094 0.109343
5481.89893 0.113357
5482.83691 0.11772
5483.77490 0.122084
5484.71289 0.126449
5485.65088 0.130812
5486.58984 0.135179
5487.52881 0.139544
5488.46777 0.143911
5489.40723 0.148277
5490.34619 0.152646
5491.28516 0.157012
5492.22510 0.161031
5493.16504 0.164927
5494.10400 0.168825
5495.04395 0.172723
5495.98486 0.176623
5496.92480 0.180521
5497.86523 0.18442
5498.80615 0.188321
5499.74707 0.192222
5500.68799 0.196124
5501.62891 0.199909
5502.56982 0.202725
5503.51221 0.205541
5504.45410 0.208359
5505.39502 0.211175
5506.33691 0.213992
5507.27881 0.216811
5508.22217 0.21963
5509.16406 0.222448
5510.10596 0.225267
5511.04883 0.228087
5511.99219 0.230362
5512.93506 0.232071
5513.87793 0.233779
5514.82178 0.235488
5515.76611 0.237198
5516.70898 0.238907
5517.65283 0.240616
5518.59717 0.242327
5519.54199 0.244037
5520.48584 0.245747
5521.43018 0.247457
5522.37500 0.248447
5523.31982 0.249349
5524.26514 0.250251
5525.20996 0.251153
5526.15479 0.252056
5527.10107 0.252958
5528.04590 0.25386
5528.99219 0.254763
5529.93799 0.255666
5530.88379 0.256569
5531.83105 0.257322
5532.77686 0.257745
5533.72412 0.258167
5534.66992 0.25859
5535.61816 0.259013
5536.56396 0.259436
5537.51221 0.259859
5538.45898 0.260282
5539.40723 0.260705
5540.35400 0.261128
5541.30322 0.261551
5542.25000 0.261889
5543.19922 0.262199
5544.14697 0.262509
5545.09619 0.262819
5546.04395 0.263128
5546.99414 0.263439
5547.94189 0.263748
5548.89209 0.264058
5549.84082 0.264369
5550.79102 0.264679
5551.74023 0.264997
5552.68994 0.265344
5553.64014 0.265692
5554.58984 0.26604
5555.54102 0.266388
5556.49121 0.266736
5557.44189 0.267084
5558.39307 0.267432
5559.34424 0.26778
5560.29492 0.268128
5561.24707 0.268476
5562.19824 0.268795
5563.14893 0.269102
5564.10205 0.269408
5565.05420 0.269715
5566.00586 0.270022
5566.95801 0.270328
5567.91113 0.270635
5568.86279 0.270942
5569.81592 0.271248
5570.76904 0.271537
5571.72217 0.271824
5572.67480 0.272117
5573.62891 0.272411
5574.58301 0.272705
5575.53613 0.272998
5576.49023 0.273292
5577.44385 0.273585
5578.39795 0.273878
5579.35303 0.274172
5580.30811 0.274473
5581.26221 0.274788
5582.21680 0.275042
5583.17188 0.275269
5584.12695 0.275496
5585.08301 0.275723
5586.03906 0.27595
5586.99414 0.276177
5587.95020 0.276404
5588.90576 0.276632
5589.86182 0.276859
5590.81885 0.277086
5591.77490 0.277301
5592.73193 0.277475
5593.68896 0.277649
5594.64600 0.277823
5595.60303 0.277997
5596.56104 0.278171
5597.51807 0.278345
5598.47607 0.278519
5599.43408 0.278694
5600.39209 0.278868
5601.35010 0.279042
5602.30811 0.279118
5603.26709 0.279166
5604.22607 0.279216
5605.18506 0.279265
5606.14404 0.279314
5607.10303 0.279363
5608.06201 0.279412
5609.02100 0.279461
5609.98096 0.27951
5610.94092 0.279559
5611.90088 0.279555
5612.86084 0.279455
5613.82080 0.279355
5614.78223 0.279255
5615.74316 0.279155
5616.70410 0.279054
5617.66504 0.278954
5618.62500 0.278855
5619.58691 0.278754
5620.54785 0.278654
5621.50977 0.278554
5622.47217 0.278407
5623.43408 0.278258
5624.39600 0.278108
5625.35791 0.277959
5626.32080 0.277809
5627.28320 0.27766
5628.24609 0.27751
5629.20898 0.277361
5630.17188 0.27721
5631.13477 0.277053
5632.09912 0.276834
5633.06201 0.276567
5634.02588 0.2763
5634.99023 0.276032
5635.95508 0.275765
5636.91797 0.275497
5637.88281 0.275229
5638.84814 0.274962
5639.81299 0.274694
5640.77686 0.274427
5641.74316 0.274148
5642.70801 0.273821
5643.67285 0.273495
5644.63916 0.273168
5645.60400 0.272841
5646.57080 0.272514
5647.53711 0.272187
5648.50293 0.271861
5649.46924 0.271534
5650.43604 0.271207
5651.40283 0.27088
5652.37012 0.270499
5653.33691 0.270107
5654.30420 0.269716
5655.27100 0.269324
5656.23877 0.268932
5657.20703 0.26854
5658.17480 0.268149
5659.14307 0.267757
5660.11084 0.267365
5661.08008 0.266973
5662.04785 0.266637
5663.01709 0.266359
5663.98584 0.26608
5664.95508 0.265802
5665.92383 0.265524
5666.89404 0.265246
5667.86279 0.264967
5668.83301 0.264689
5669.80322 0.26441
5670.77197 0.264132
5671.74316 0.263869
5672.71289 0.26368
5673.68408 0.26349
5674.65479 0.263301
5675.62500 0.263111
5676.59717 0.262922
5677.56787 0.262733
5678.53906 0.262543
5679.51123 0.262354
5680.48193 0.262165
5681.45508 0.261975
5682.42578 0.261829
5683.39893 0.261688
5684.37109 0.261548
5685.34424 0.261408
5686.31592 0.261268
5687.29004 0.261128
5688.26221 0.260987
5689.23584 0.260847
5690.20898 0.260707
5691.18311 0.260566
5692.15576 0.260448
5693.12988 0.260344
5694.10400 0.260241
5695.07910 0.260137
5696.05322 0.260033
5697.02686 0.25993
5698.00195 0.259826
5698.97705 0.259722
5699.95215 0.259619
5700.92676 0.259515
5701.90283 0.259457
5702.87793 0.259491
5703.85400 0.259526
5704.83008 0.25956
5705.80615 0.259595
5706.78223 0.259629
5707.75879 0.259663
5708.73486 0.259698
5709.71191 0.259732
5710.68896 0.259767
5711.66602 0.259815
5712.64307 0.26001
5713.62109 0.260205
5714.59814 0.2604
5715.57617 0.260596
5716.55420 0.260791
5717.53223 0.260986
5718.50977 0.261182
5719.48779 0.261377
5720.46680 0.261562
5721.44580 0.261736
5722.42480 0.262003
5723.40381 0.262286
5724.38281 0.262569
5725.36182 0.262852
5726.34180 0.263136
5727.32178 0.263419
5728.30176 0.263702
5729.28223 0.263985
5730.26221 0.264273
5731.24316 0.264578
5732.22314 0.264875
5733.20410 0.265169
5734.18506 0.265462
5735.16602 0.265755
5736.14697 0.266049
5737.12793 0.266342
5738.10986 0.266635
5739.09180 0.266929
5740.07422 0.267222
5741.05615 0.267515
5742.03809 0.267808
5743.02100 0.2681
5744.00293 0.268392
5744.98584 0.268684
5745.96924 0.268975
5746.95215 0.269267
5747.93506 0.269559
5748.91797 0.269851
5749.90186 0.270143
5750.88623 0.270435
5751.87012 0.270751
5752.85400 0.271127
5753.83789 0.271504
5754.82324 0.271881
5755.80811 0.272258
5756.79199 0.272635
5757.77686 0.273012
5758.76221 0.273389
5759.74805 0.273766
5760.73291 0.274143
5761.71924 0.274512
5762.70508 0.274823
5763.68994 0.275134
5764.67676 0.275446
5765.66309 0.275757
5766.64893 0.276068
5767.63623 0.27638
5768.62305 0.276691
5769.60986 0.277003
5770.59717 0.277314
5771.58398 0.277626
5772.57178 0.277821
5773.56006 0.278015
5774.54688 0.278208
5775.53516 0.278402
5776.52295 0.278595
5777.51221 0.278789
5778.50000 0.278983
5779.48877 0.279176
5780.47803 0.27937
5781.46680 0.279564
5782.45605 0.279656
5783.44482 0.279732
5784.43506 0.279808
5785.42383 0.279883
5786.41504 0.279959
5787.40381 0.280035
5788.39502 0.280111
5789.38477 0.280187
5790.37500 0.280263
5791.36621 0.280339
5792.35693 0.280354
5793.34814 0.28035
5794.33887 0.280346
5795.33105 0.280342
5796.32178 0.280339
5797.31396 0.280335
5798.30615 0.280331
5799.29785 0.280327
5800.29004 0.280323
5801.28320 0.280319
5802.27490 0.280214
5803.26807 0.280058
5804.26123 0.279902
5805.25391 0.279747
5806.24707 0.279591
5807.24023 0.279436
5808.23389 0.27928
5809.22803 0.279124
5810.22217 0.278969
5811.21582 0.278813
5812.20996 0.278569
5813.20508 0.278266
5814.19922 0.277963
5815.19385 0.277661
5816.18896 0.277358
5817.18408 0.277056
5818.17920 0.276753
5819.17480 0.27645
5820.16992 0.276144
5821.16602 0.275818
5822.16211 0.275459
5823.15820 0.275073
5824.15479 0.274687
5825.15088 0.274301
5826.14697 0.273916
5827.14502 0.27353
5828.14209 0.273144
5829.13916 0.272759
5830.13623 0.272377
5831.13281 0.272018
5832.13086 0.271676
5833.12891 0.27135
5834.12695 0.271024
5835.12500 0.270698
5836.12402 0.270371
5837.12207 0.270045
5838.12109 0.269719
5839.12012 0.269392
5840.11914 0.269066
5841.11816 0.26874
5842.11719 0.268419
5843.11719 0.268104
5844.11719 0.267789
5845.11719 0.267474
5846.11719 0.267159
5847.11719 0.266844
5848.11719 0.266528
5849.11816 0.266213
5850.11914 0.265898
5851.12012 0.265583
5852.12109 0.265251
5853.12207 0.264904
5854.12305 0.264556
5855.12500 0.264208
5856.12598 0.26386
5857.12793 0.263512
5858.13086 0.263164
5859.13281 0.262816
5860.13623 0.262467
5861.13818 0.262119
5862.14111 0.261789
5863.14404 0.261474
5864.14697 0.26116
5865.14990 0.260846
5866.15381 0.260531
5867.15820 0.260217
5868.16211 0.259902
5869.16602 0.259588
5870.16895 0.259273
5871.17383 0.258958
5872.17920 0.258727
5873.18311 0.258563
5874.18799 0.2584
5875.19287 0.258236
5876.19824 0.258072
5877.20410 0.257909
5878.20898 0.257745
5879.21484 0.257582
5880.22119 0.257418
5881.22705 0.257254
5882.23291 0.257208
5883.24023 0.25724
5884.24609 0.257272
5885.25293 0.257304
5886.25977 0.257335
5887.26709 0.257368
5888.27393 0.257399
5889.28223 0.257431
5890.29004 0.257463
5891.29688 0.257495
5892.30518 0.257576
5893.31299 0.257682
5894.32178 0.257787
5895.33008 0.257892
5896.33887 0.257998
5897.34814 0.258103
5898.35596 0.258209
5899.36621 0.258314
5900.37500 0.258411
5901.38477 0.258495
5902.39502 0.258579
5903.40381 0.258663
5904.41406 0.258747
5905.42383 0.258831
5906.43506 0.258915
5907.44482 0.258999
5908.45605 0.259084
5909.46680 0.259168
5910.47803 0.259263
5911.48877 0.259369
5912.50098 0.259538
5913.51221 0.259718
5914.52393 0.259898
5915.53613 0.260078
5916.54785 0.260258
5917.56104 0.260438
5918.57324 0.260618
5919.58496 0.260798
5920.59814 0.260978
5921.61084 0.261159
5922.62500 0.261474
5923.63818 0.261792
5924.65088 0.262112
5925.66504 0.262431
5926.67920 0.26275
5927.69287 0.263069
5928.70703 0.263388
5929.72217 0.263707
5930.73584 0.264026
5931.75000 0.264354
5932.76611 0.264755
5933.78076 0.265156
5934.79590 0.265557
5935.81201 0.265958
5936.82715 0.266359
5937.84277 0.26676
5938.85791 0.267161
5939.87500 0.267562
5940.89111 0.267964
5941.90723 0.268351
5942.92383 0.268697
5943.94092 0.269043
5944.95801 0.269389
5945.97510 0.269736
5946.99219 0.270082
5948.00977 0.270428
5949.02686 0.270775
5950.04492 0.271121
5951.06299 0.271468
5952.08203 0.271772
5953.10010 0.27202
5954.11914 0.272268
5955.13721 0.272516
5956.15576 0.272765
5957.17480 0.273013
5958.19385 0.273261
5959.21387 0.273509
5960.23291 0.273757
5961.25293 0.274006
5962.27295 0.27423
5963.29297 0.274438
5964.31299 0.274647
5965.33398 0.274855
5966.35400 0.275064
5967.37500 0.275272
5968.39600 0.275481
5969.41699 0.275689
5970.43896 0.275888
5971.45996 0.276073
5972.48193 0.276205
5973.50391 0.276326
5974.52588 0.276447
5975.54785 0.276567
5976.57080 0.276688
5977.59277 0.276808
5978.61621 0.276929
5979.63916 0.277049
5980.66211 0.277185
5981.68506 0.277327
5982.70801 0.27736
5983.73193 0.277393
5984.75586 0.277427
5985.77979 0.27746
5986.80420 0.277493
5987.82812 0.277526
5988.85303 0.277559
5989.87695 0.277593
5990.90186 0.277626
5991.92676 0.277608
5992.95312 0.277447
5993.97803 0.277286
5995.00293 0.277125
5996.02881 0.276964
5997.05518 0.276803
5998.08105 0.276642
5999.10693 0.276481
6000.13379 0.276322
6001.16016 0.276182
6002.18701 0.276005
6003.21387 0.275791
6004.24121 0.275578
6005.26904 0.275364
6006.29590 0.27515
6007.32422 0.274936
6008.35205 0.274723
6009.37891 0.274509
6010.40820 0.274295
6011.43604 0.274081
6012.46387 0.273851
6013.49316 0.273617
6014.52197 0.273382
6015.55078 0.273147
6016.58008 0.272913
6017.60986 0.272678
6018.63916 0.272443
6019.66895 0.272208
6020.69922 0.271973
6021.72900 0.271737
6022.75879 0.271481
6023.79004 0.271226
6024.81982 0.270971
6025.85107 0.270715
6026.88184 0.270459
6027.91406 0.270203
6028.94482 0.269948
6029.97607 0.269692
6031.00781 0.26941
6032.04004 0.269084
6033.07178 0.26868
6034.10400 0.268276
6035.13721 0.267873
6036.16895 0.267469
6037.20215 0.267065
6038.23486 0.266661
6039.26807 0.266257
6040.30078 0.26586
6041.33398 0.26548
6042.36816 0.265069
6043.40186 0.264644
6044.43604 0.264219
6045.47021 0.263794
6046.50391 0.263368
6047.53906 0.262943
6048.57422 0.262517
6049.60889 0.262091
6050.64404 0.261665
6051.67920 0.26124
6052.71387 0.26095
6053.75000 0.260661
6054.78613 0.260371
6055.82178 0.260082
6056.85791 0.259792
6057.89404 0.259502
6058.93115 0.259213
6059.96680 0.258923
6061.00391 0.258633
6062.04102 0.25838
6063.07812 0.258197
6064.11621 0.258014
6065.15283 0.257831
6066.19092 0.257648
6067.22900 0.257465
6068.26709 0.257282
6069.30518 0.257098
6070.34277 0.256915
6071.38184 0.256732
6072.42090 0.256607
6073.45996 0.256506
6074.49902 0.256405
6075.53809 0.256304
6076.57812 0.256203
6077.61816 0.256101
6078.65723 0.256
6079.69678 0.255899
6080.73682 0.255797
6081.77783 0.255694
6082.81787 0.255574
6083.85889 0.255454
6084.89990 0.255334
6085.94092 0.255214
6086.98193 0.255093
6088.02393 0.254973
6089.06494 0.254853
6090.10693 0.25473
6091.14893 0.254587
6092.19092 0.254461
6093.23389 0.254352
6094.27588 0.254243
6095.31885 0.254134
6096.36182 0.254025
6097.40479 0.253916
6098.44824 0.253807
6099.49219 0.253698
6100.53516 0.2536
6101.57910 0.253513
6102.62305 0.253546
6103.66699 0.253593
6104.71094 0.25364
6105.75586 0.253687
6106.79980 0.253734
6107.84521 0.253781
6108.89014 0.253828
6109.93604 0.253875
6110.98096 0.253922
6112.02588 0.254022
6113.07178 0.254234
6114.11816 0.254447
6115.16406 0.254659
6116.20996 0.254872
6117.25684 0.255084
6118.30420 0.255297
6119.35107 0.25551
6120.39697 0.255723
6121.44385 0.255935
6122.49219 0.256167
6123.54004 0.256405
6124.58691 0.256643
6125.63477 0.256881
6126.68311 0.257119
6127.73096 0.257358
6128.77979 0.257596
6129.82812 0.257834
6130.87695 0.258072
6131.92578 0.258293
6132.97510 0.258452
6134.02393 0.25861
6135.07422 0.258769
6136.12402 0.258927
6137.17285 0.259086
6138.22412 0.259245
6139.27393 0.259404
6140.32422 0.259563
6141.37500 0.259722
6142.42578 0.259875
6143.47705 0.260026
6144.52783 0.260178
6145.57910 0.260329
6146.62988 0.260481
6147.68213 0.260632
6148.73389 0.260784
6149.78613 0.260935
6150.83789 0.261068
6151.89111 0.261202
6152.94287 0.261362
6153.99609 0.261522
6155.04883 0.261682
6156.10205 0.261842
6157.15479 0.262001
6158.20801 0.262161
6159.26221 0.262322
6160.31592 0.262489
6161.37012 0.262672
6162.42383 0.262906
6163.47900 0.263164
6164.53320 0.263421
6165.58789 0.263679
6166.64307 0.263936
6167.69824 0.264194
6168.75293 0.264452
6169.80908 0.26471
6170.86377 0.264968
6171.91992 0.265204
6172.97607 0.265356
6174.03223 0.265508
6175.08789 0.26566
6176.14502 0.265812
6177.20215 0.265964
6178.25781 0.266116
6179.31494 0.266268
6180.37305 0.26642
6181.43018 0.266572
6182.48779 0.266641
6183.54492 0.26668
6184.60400 0.266719
6185.66211 0.266757
6186.72021 0.266796
6187.77783 0.266835
6188.83691 0.266873
6189.89600 0.266912
6190.95508 0.266951
6192.01416 0.266967
6193.07422 0.266926
6194.13281 0.266885
6195.19287 0.266844
6196.25293 0.266803
6197.31299 0.266762
6198.37402 0.266721
6199.43408 0.26668
6200.49512 0.266628
6201.55615 0.266563
6202.61719 0.266516
6203.67822 0.266471
6204.73877 0.266427
6205.80078 0.266382
6206.86279 0.266338
6207.92480 0.266293
6208.98682 0.266248
6210.04883 0.266205
6211.11182 0.266185
6212.17383 0.266177
6213.23682 0.266187
6214.29980 0.266196
6215.36377 0.266205
6216.42676 0.266215
6217.49121 0.266224
6218.55420 0.266234
6219.61816 0.266243
6220.68311 0.266253
6221.74707 0.26626
6222.81201 0.266171
6223.87598 0.266083
6224.94092 0.265994
6226.00586 0.265905
6227.07080 0.265817
6228.13721 0.265728
6229.20215 0.265639
6230.26807 0.265551
6231.33398 0.265464
6232.39990 0.265313
6233.46582 0.265124
6234.53320 0.264935
6235.60010 0.264745
6236.66699 0.264556
6237.73291 0.264367
6238.80078 0.264178
6239.86816 0.263988
6240.93604 0.263778
6242.00293 0.263566
6243.07178 0.263358
6244.14014 0.263151
6245.20801 0.262944
6246.27588 0.262736
6247.34521 0.262529
6248.41406 0.262322
6249.48291 0.262114
6250.55176 0.261919
6251.62207 0.261735
6252.69092 0.261655
6253.76123 0.261585
6254.83203 0.261516
6255.90088 0.261446
6256.97217 0.261377
6258.04199 0.261307
6259.11279 0.261238
6260.18408 0.261168
6261.25488 0.261099
6262.32617 0.26107
6263.39795 0.261073
6264.46924 0.261077
6265.54102 0.261081
6266.61279 0.261084
6267.68604 0.261088
6268.75781 0.261092
6269.83105 0.261095
6270.90283 0.261099
6271.97607 0.261087
6273.04883 0.261021
6274.12305 0.260956
6275.19580 0.26089
6276.27002 0.260824
6277.34277 0.260758
6278.41699 0.260692
6279.49219 0.260627
6280.56592 0.260561
6281.64111 0.260495
6282.71484 0.260399
6283.79004 0.2603
6284.86523 0.260201
6285.93994 0.260102
6287.01611 0.260003
6288.09180 0.259904
6289.16699 0.259804
6290.24414 0.2597
6291.31982 0.259577
6292.39600 0.259461
6293.47314 0.259351
6294.54980 0.259241
6295.62598 0.259131
6296.70410 0.259021
6297.78076 0.258911
6298.85889 0.2588
6299.93701 0.25869
6301.01416 0.258602
6302.09180 0.258562
6303.16992 0.25862
6304.24902 0.258677
6305.32812 0.258734
6306.40576 0.258791
6307.48486 0.258848
6308.56396 0.258905
6309.64404 0.258962
6310.72412 0.259019
6311.80322 0.25908
6312.88281 0.259213
6313.96289 0.259346
6315.04297 0.259479
6316.12402 0.259612
6317.20508 0.259745
6318.28613 0.259878
6319.36719 0.260011
6320.44824 0.260144
6321.52881 0.260277
6322.61084 0.260365
6323.69189 0.260441
6324.77393 0.260517
6325.85596 0.260593
6326.93896 0.260669
6328.02100 0.260746
6329.10400 0.260822
6330.18701 0.260894
6331.27002 0.260946
6332.35303 0.260949
6333.43701 0.260914
6334.52100 0.260879
6335.60400 0.260843
6336.68799 0.260808
6337.77197 0.260773
6338.85596 0.260737
6339.94092 0.260702
6341.02588 0.260689
6342.11084 0.26067
6343.19580 0.260634
6344.28076 0.260597
6345.36719 0.260561
6346.45215 0.260525
6347.53809 0.260489
6348.62402 0.260453
6349.70996 0.260416
6350.79688 0.26038
6351.88281 0.260353
6352.97021 0.2604
6354.05713 0.260446
6355.14502 0.260492
6356.23096 0.260538
6357.31885 0.260584
6358.40723 0.26063
6359.49512 0.260676
6360.58301 0.260723
6361.67090 0.260769
6362.75879 0.260838
6363.84814 0.260909
6364.93701 0.260981
6366.02588 0.261052
6367.11523 0.261123
6368.20508 0.261195
6369.29395 0.261266
6370.38379 0.261329
6371.47412 0.261376
6372.56396 0.261413
6373.65381 0.261448
6374.74512 0.261483
6375.83496 0.261517
6376.92578 0.261552
6378.01807 0.261586
6379.10791 0.261621
6380.20020 0.26166
6381.29199 0.261719
6382.38281 0.261699
6383.47607 0.26162
6384.56689 0.261541
6385.66016 0.261461
6386.75195 0.261382
6387.84521 0.261302
6388.93799 0.261223
6390.03076 0.261144
6391.12500 0.261064
6392.21777 0.260954
6393.31201 0.2608
6394.40576 0.260647
6395.50000 0.260494
6396.59424 0.26034
6397.68799 0.260187
6398.78320 0.260033
6399.87793 0.259879
6400.97314 0.259726
6402.06787 0.259595
6403.16309 0.259526
6404.25879 0.259458
6405.35400 0.259389
6406.45117 0.25932
6407.54590 0.259251
6408.64307 0.259182
6409.73877 0.259114
6410.83594 0.259026
6411.93311 0.258943
6413.02979 0.258922
6414.12695 0.2589
6415.22510 0.258878
6416.32178 0.258856
6417.41992 0.258835
6418.51807 0.258813
6419.61621 0.258791
6420.71387 0.258785
6421.81299 0.258788
6422.91211 0.258812
6424.01123 0.258836
6425.10986 0.25886
6426.20898 0.258884
6427.30908 0.258908
6428.40820 0.258932
6429.50781 0.258956
6430.60791 0.258978
6431.70801 0.258996
6432.80908 0.258937
6433.91016 0.258873
6435.00977 0.258809
6436.11084 0.258745
6437.21191 0.25868
6438.31396 0.258616
6439.41602 0.258552
6440.51709 0.258487
6441.61914 0.258423
6442.72119 0.258325
6443.82422 0.258221
6444.92578 0.258117
6446.02881 0.258012
6447.13184 0.257908
6448.23486 0.257804
6449.33789 0.2577
6450.44092 0.257586
6451.54492 0.257458
6452.64893 0.25736
6453.75293 0.25727
6454.85693 0.257181
6455.96094 0.257091
6457.06592 0.257002
6458.17090 0.256912
6459.27588 0.256822
6460.38086 0.256741
6461.48584 0.256676
6462.59180 0.256735
6463.69678 0.25684
6464.80322 0.256946
6465.91016 0.257051
6467.01611 0.257157
6468.12207 0.257262
6469.22900 0.257368
6470.33594 0.257473
6471.44287 0.257578
6472.54980 0.257747
6473.65723 0.257944
6474.76514 0.258141
6475.87305 0.258338
6476.98096 0.258536
6478.08887 0.258733
6479.19678 0.25893
6480.30615 0.259127
6481.41504 0.259324
6482.52295 0.259496
6483.63281 0.259654
6484.74219 0.259812
6485.85205 0.25997
6486.96094 0.260129
6488.07080 0.260287
6489.18115 0.260445
6490.29199 0.260597
6491.40186 0.26073
6492.51318 0.260831
6493.62402 0.260915
6494.73389 0.260998
6495.84619 0.261082
6496.95703 0.261165
6498.06885 0.261249
6499.18018 0.261332
6500.29199 0.26141
6501.40479 0.261471
6502.51709 0.261523
6503.62891 0.26157
6504.74219 0.261617
6505.85498 0.261664
6506.96777 0.261711
6508.08203 0.261759
6509.19482 0.261806
6510.30908 0.261853
6511.42188 0.261899
6512.53711 0.262032
6513.65088 0.262209
6514.76514 0.262385
6515.87988 0.262562
6516.99512 0.262738
6518.10986 0.262915
6519.22510 0.263091
6520.33984 0.263259
6521.45605 0.26341
6522.57178 0.263604
6523.68799 0.263818
6524.80420 0.264031
6525.91992 0.264244
6527.03711 0.264457
6528.15381 0.26467
6529.27100 0.264883
6530.38818 0.265104
6531.50488 0.265342
6532.62305 0.265581
6533.74023 0.26582
6534.85791 0.266059
6535.97607 0.266298
6537.09424 0.266537
6538.21289 0.266776
6539.33203 0.267015
6540.45020 0.267254
6541.56885 0.267492
6542.68799 0.267653
6543.80811 0.267792
6544.92822 0.267931
6546.04688 0.26807
6547.16699 0.268209
6548.28809 0.268348
6549.40820 0.268488
6550.52881 0.268627
6551.64893 0.268765
6552.77100 0.268836
6553.89209 0.268895
6555.01318 0.268955
6556.13379 0.269014
6557.25586 0.269073
6558.37793 0.269132
6559.50000 0.269191
6560.62305 0.269236
6561.74512 0.269269
6562.86816 0.269279
6563.99023 0.269287
6565.11279 0.269295
6566.23682 0.269303
6567.35986 0.269311
6568.48389 0.269319
6569.60693 0.269327
6570.73096 0.269352
6571.85596 0.269385
6572.97998 0.26942
6574.10498 0.269454
6575.22900 0.269489
6576.35400 0.269524
6577.47998 0.269558
6578.60498 0.269593
6579.73096 0.269627
6580.85596 0.269662
6581.98193 0.269693
6583.10889 0.269709
6584.23486 0.269725
6585.36084 0.269741
6586.48779 0.269757
6587.61523 0.269773
6588.74219 0.269788
6589.87012 0.269804
6590.99707 0.269797
6592.12500 0.26975
6593.25195 0.269607
6594.38086 0.269463
6595.50879 0.26932
6596.63721 0.269177
6597.76611 0.269033
6598.89502 0.26889
6600.02393 0.268747
6601.15283 0.26863
6602.28320 0.268464
6603.41211 0.268226
6604.54199 0.267988
6605.67188 0.26775
6606.80176 0.267512
6607.93311 0.267274
6609.06299 0.267037
6610.19385 0.266799
6611.32520 0.266561
6612.45605 0.26631
6613.58691 0.266049
6614.71924 0.265788
6615.85107 0.265526
6616.98193 0.265265
6618.11523 0.265004
6619.24707 0.264743
6620.37891 0.264481
6621.51221 0.26422
6622.64502 0.263965
6623.77783 0.263712
6624.91211 0.26346
6626.04492 0.263207
6627.17920 0.262954
6628.31299 0.262702
6629.44678 0.262449
6630.58105 0.262178
6631.71484 0.261888
6632.85010 0.261641
6633.98486 0.261399
6635.12012 0.261157
6636.25488 0.260916
6637.39111 0.260674
6638.52588 0.260433
6639.66211 0.260191
6640.79785 0.259968
6641.93408 0.259744
6643.07080 0.259446
6644.20703 0.259148
6645.34424 0.258849
6646.48096 0.258551
6647.61816 0.258253
6648.75488 0.257955
6649.89307 0.257657
6651.03076 0.257359
6652.16895 0.257043
6653.30713 0.256685
6654.44482 0.256327
6655.58398 0.255969
6656.72314 0.255611
6657.86084 0.255254
6659.00000 0.254896
6660.14014 0.254536
6661.27881 0.254153
6662.41895 0.253763
6663.55908 0.253366
6664.69922 0.252969
6665.83887 0.252572
6666.97998 0.252175
6668.12109 0.251779
6669.26221 0.251382
6670.40283 0.250995
6671.54395 0.250623
6672.68604 0.250314
6673.82715 0.250028
6674.96924 0.249742
6676.11084 0.249455
6677.25293 0.249169
6678.39600 0.248883
6679.53809 0.248596
6680.68115 0.24831
6681.82422 0.248024
6682.96680 0.247904
6684.11084 0.247787
6685.25391 0.247671
6686.39795 0.247554
6687.54199 0.247437
6688.68701 0.247321
6689.83105 0.247204
6690.97607 0.247066
6692.12012 0.24694
6693.26514 0.246859
6694.41016 0.246779
6695.55615 0.246698
6696.70117 0.246617
6697.84717 0.246537
6698.99316 0.246456
6700.13916 0.246379
6701.28613 0.246322
6702.43213 0.246264
6703.57910 0.246202
6704.72607 0.246141
6705.87305 0.24608
6707.02100 0.246019
6708.16797 0.245957
6709.31494 0.245896
6710.46289 0.245835
6711.61182 0.245773
6712.75977 0.245696
6713.90918 0.245614
6715.05713 0.245533
6716.20605 0.245451
6717.35498 0.245369
6718.50391 0.245287
6719.65381 0.245206
6720.80420 0.245107
6721.95410 0.245004
6723.10400 0.244931
6724.25391 0.244858
6725.40381 0.244785
6726.55518 0.244712
6727.70605 0.24464
6728.85693 0.244567
6730.00781 0.244494
6731.16016 0.244445
6732.31201 0.244435
6733.46289 0.244482
6734.61523 0.24453
6735.76807 0.244578
6736.91992 0.244626
6738.07324 0.244674
6739.22607 0.244721
6740.37793 0.244769
6741.53223 0.244816
6742.68604 0.244974
6743.83887 0.245175
6744.99316 0.245376
6746.14697 0.245577
6747.30078 0.245778
6748.45605 0.245978
6749.60986 0.246179
6750.76514 0.246364
6751.91992 0.24654
6753.07520 0.246732
6754.22998 0.246924
6755.38623 0.247116
6756.54199 0.247308
6757.69824 0.2475
6758.85400 0.247692
6760.01123 0.247883
6761.16699 0.248099
6762.32422 0.248297
6763.48096 0.248468
6764.63818 0.248639
6765.79492 0.248809
6766.95312 0.248979
6768.11084 0.24915
6769.26904 0.24932
6770.42676 0.24949
6771.58496 0.24966
6772.74414 0.249766
6773.90283 0.24985
6775.06201 0.249935
6776.22119 0.250019
6777.37988 0.250103
6778.54004 0.250188
6779.70020 0.250272
6780.85986 0.250337
6782.02002 0.250387
6783.18018 0.250375
6784.34082 0.250363
6785.50098 0.250352
6786.66309 0.250339
6787.82422 0.250327
6788.98486 0.250315
6790.14600 0.250306
6791.30908 0.250319
6792.47021 0.250338
6793.63184 0.250364
6794.79492 0.250389
6795.95801 0.250414
6797.12012 0.250439
6798.28320 0.250464
6799.44580 0.250489
6800.60889 0.250514
6801.77295 0.250539
6802.93701 0.250537
6804.10107 0.250533
6805.26514 0.250528
6806.42920 0.250524
6807.59424 0.25052
6808.75879 0.250515
6809.92285 0.250511
6811.08887 0.250483
6812.25391 0.250433
6813.41895 0.250339
6814.58496 0.250245
6815.75098 0.250152
6816.91699 0.250058
6818.08301 0.249964
6819.25000 0.249871
6820.41699 0.249786
6821.58398 0.249718
6822.75098 0.249555
6823.91797 0.24936
6825.08594 0.249165
6826.25391 0.24897
6827.42090 0.248775
6828.58984 0.24858
6829.75781 0.248386
6830.92676 0.248196
6832.09521 0.247986
6833.26416 0.247676
6834.43408 0.247366
6835.60303 0.247056
6836.77197 0.246746
6837.94189 0.246436
6839.11182 0.246126
6840.28223 0.24581
6841.45312 0.245476
6842.62305 0.245132
6843.79395 0.244782
6844.96484 0.244432
6846.13623 0.244083
6847.30713 0.243734
6848.47900 0.243385
6849.64990 0.243035
6850.82178 0.242704
6851.99512 0.242382
6853.16699 0.242085
6854.33887 0.241788
6855.51221 0.241491
6856.68506 0.241194
6857.85791 0.240897
6859.03223 0.240601
6860.20508 0.2403
6861.37891 0.239979
6862.55322 0.239692
6863.72705 0.239432
6864.90088 0.239172
6866.07617 0.238913
6867.25000 0.238653
6868.42480 0.238394
6869.60107 0.238134
6870.77588 0.237891
6871.95215 0.237655
6873.12695 0.237413
6874.30322 0.237171
6875.47900 0.236928
6876.65576 0.236686
6877.83301 0.236444
6879.00879 0.236202
6880.18604 0.23596
6881.36279 0.235718
6882.54102 0.235468
6883.71777 0.235209
6884.89600 0.234951
6886.07422 0.234693
6887.25195 0.234435
6888.43018 0.234177
6889.60889 0.233919
6890.78809 0.233646
6891.96680 0.233365
6893.14600 0.233096
6894.32520 0.232827
6895.50488 0.232558
6896.68506 0.232289
6897.86523 0.23202
6899.04492 0.231752
6900.22510 0.231488
6901.40576 0.231243
6902.58594 0.231024
6903.76807 0.230824
6904.94922 0.230624
6906.12988 0.230424
6907.31201 0.230224
6908.49414 0.230024
6909.67578 0.229824
6910.85791 0.229624
6912.04004 0.229439
6913.22314 0.229375
6914.40576 0.22931
6915.58887 0.229246
6916.77197 0.229182
6917.95508 0.229117
6919.13916 0.229053
6920.32324 0.228982
6921.50684 0.228894
6922.69092 0.228865
6923.87500 0.228866
6925.06006 0.228867
6926.24512 0.228868
6927.43018 0.228869
6928.61523 0.22887
6929.80078 0.228871
6930.98584 0.228892
6932.17188 0.228916
6933.35791 0.228936
6934.54395 0.228957
6935.73096 0.228978
6936.91699 0.228998
6938.10400 0.229019
6939.29199 0.229039
6940.47900 0.22905
6941.66699 0.229047
6942.85400 0.228992
6944.04199 0.228923
6945.22998 0.228855
6946.41797 0.228786
6947.60693 0.228717
6948.79492 0.228649
6949.98389 0.22858
6951.17285 0.228535
6952.36279 0.228465
6953.55176 0.228356
6954.74219 0.228246
6955.93213 0.228136
6957.12207 0.228027
6958.31299 0.227917
6959.50293 0.227807
6960.69385 0.227698
6961.88477 0.227588
6963.07617 0.227474
6964.26709 0.227359
6965.45801 0.227245
6966.64990 0.227131
6967.84180 0.227016
6969.03516 0.226902
6970.22705 0.226783
6971.41895 0.226645
6972.61182 0.226551
6973.80518 0.226489
6974.99902 0.226427
6976.19189 0.226365
6977.38477 0.226303
6978.57910 0.226241
6979.77295 0.226179
6980.96680 0.226136
6982.16211 0.226131
6983.35596 0.226261
6984.55078 0.226392
6985.74609 0.226522
6986.94092 0.226653
6988.13721 0.226783
6989.33301 0.226914
6990.52783 0.227044
6991.72412 0.227174
6992.91992 0.227453
6994.11719 0.227763
6995.31299 0.228072
6996.50977 0.228381
6997.70801 0.22869
6998.90479 0.228999
7000.10303 0.229303
7001.29980 0.229557
7002.49805 0.22987
7003.69580 0.230247
7004.89404 0.230623
7006.09277 0.230999
7007.29199 0.231375
7008.49023 0.231751
7009.68896 0.232126
7010.88916 0.232518
7012.08789 0.232902
7013.28809 0.233182
7014.48779 0.233462
7015.68799 0.233742
7016.88916 0.234021
7018.08887 0.2343
7019.29004 0.23458
7020.49121 0.234849
7021.69189 0.235103
7022.89307 0.234779
7024.09521 0.234307
7025.29688 0.233836
7026.49902 0.233365
7027.70117 0.232895
7028.90283 0.232424
7030.10596 0.231956
7031.30908 0.2315
7032.51221 0.2303
7033.71484 0.228282
7034.91797 0.226264
7036.12207 0.224248
7037.32617 0.222234
7038.52979 0.220221
7039.73389 0.218209
7040.93799 0.216198
7042.14307 0.213824
7043.34814 0.209639
7044.55322 0.205456
7045.75781 0.201278
7046.96387 0.197101
7048.16895 0.192927
7049.37500 0.188755
7050.58203 0.184577
7051.78809 0.180391
7052.99512 0.174781
7054.20117 0.168965
7055.40820 0.163152
7056.61523 0.157346
7057.82324 0.151543
7059.02979 0.145746
7060.23779 0.139958
7061.44580 0.134184
7062.65381 0.12845
7063.86182 0.122748
7065.07080 0.117046
7066.27979 0.111351
7067.48877 0.105659
7068.69824 0.099968
7069.90820 0.094283
7071.11719 0.088593
7072.32715 0.083386
7073.53711 0.079238
7074.74707 0.075094
7075.95801 0.070953
7077.16797 0.066814
7078.37891 0.06268
7079.58984 0.05855
7080.80176 0.054426
7082.01318 0.050386
7083.22510 0.047819
7084.43701 0.045253
7085.64893 0.042687
7086.86084 0.040126
7088.07422 0.037564
7089.28613 0.035005
7090.50000 0.032445
7091.71191 0.029886
7092.92578 0.028143
7094.13916 0.026605
7095.35303 0.025067
7096.56689 0.023531
7097.78076 0.021996
7098.99609 0.020463
7100.20996 0.018931
7101.42480 0.017402
7102.64014 0.016254
7103.85498 0.015404
7105.07080 0.014554
7106.28613 0.013705
7107.50195 0.012856
7108.71777 0.012008
7109.93506 0.011161
7111.15088 0.010314
7112.36816 0.009594
7113.58398 0.009125
7114.80176 0.008657
7116.01904 0.00819
7117.23584 0.007722
7118.45410 0.007255
7119.67188 0.006788
7120.89014 0.006322
7122.10791 0.005878
7123.32715 0.005601
7124.54590 0.005324
7125.76514 0.005047
7126.98389 0.004771
7128.20410 0.004495
7129.42285 0.004219
7130.64307 0.003944
7131.86279 0.003669
7133.08301 0.003494
7134.30420 0.003327
7135.52393 0.003161
7136.74512 0.002995
7137.96582 0.002829
7139.18799 0.002663
7140.40918 0.002497
7141.62988 0.002331
7142.85303 0.002212
7144.07520 0.002112
7145.29688 0.002012
7146.52002 0.001912
7147.74219 0.001813
7148.96484 0.001713
7150.18799 0.001613
7151.41211 0.001514
7152.63477 0.001435
7153.85889 0.001374
7155.08301 0.001312
7156.30713 0.001251
7157.53076 0.00119
7158.75586 0.001128
7159.98096 0.001067
7161.20605 0.001006
7162.43115 0.000953
7163.65723 0.000915
7164.88184 0.000877
7166.10791 0.000839
7167.33398 0.000801
7168.56104 0.000764
7169.78711 0.000726
7171.01416 0.000688
7172.24121 0.000653
7173.46777 0.000626
7174.69482 0.000599
7175.92285 0.000572
7177.14990 0.000546
7178.37793 0.000519
7179.60596 0.000492
7180.83496 0.000466
7182.06299 0.00044
7183.29199 0.000424
7184.52100 0.000408
7902.97314 0.0
