# %ECSV 0.9
# ---
# datatype:
# - {name: wavelength, unit: Angstrom, datatype: float32}
# - {name: response, datatype: float32}
# meta: !!omap
# - {band_name: F475W}
# - {group_name: WFC3_UVIS1}
wavelength response
3527.54907 0.0
3919.49902 0.000415
3920.16992 0.000432
3920.84009 0.000449
3921.51099 0.000478
3922.18188 0.000517
3922.85303 0.000555
3923.52393 0.000594
3924.19604 0.000632
3924.86694 0.000671
3925.53906 0.000709
3926.20996 0.000748
3926.88208 0.000786
3927.55396 0.000825
3928.22607 0.000864
3928.89795 0.000903
3929.57007 0.000941
3930.24194 0.00098
3930.91504 0.001019
3931.58691 0.001092
3932.26001 0.001179
3932.93311 0.001266
3933.60596 0.001353
3934.27905 0.00144
3934.95190 0.001527
3935.62500 0.001615
3936.29907 0.001702
3936.97192 0.00179
3937.64600 0.001877
3938.31909 0.001965
3938.99292 0.002053
3939.66699 0.002141
3940.34106 0.002229
3941.01489 0.002317
3941.68994 0.002489
3942.36401 0.002677
3943.03906 0.002865
3943.71289 0.003053
3944.38794 0.003241
3945.06299 0.00343
3945.73804 0.003618
3946.41309 0.003807
3947.08789 0.003996
3947.76294 0.004185
3948.43896 0.004374
3949.11499 0.004563
3949.79004 0.004753
3950.46606 0.004943
3951.14209 0.005139
3951.81812 0.005519
3952.49390 0.0059
3953.16992 0.006281
3953.84595 0.006662
3954.52295 0.007044
3955.19995 0.007426
3955.87598 0.007808
3956.55298 0.008191
3957.22998 0.008573
3957.90698 0.008957
3958.58398 0.00934
3959.26196 0.009724
3959.93896 0.010109
3960.61694 0.010494
3961.29395 0.01096
3961.97192 0.011662
3962.64990 0.012365
3963.32788 0.013069
3964.00610 0.013773
3964.68408 0.014478
3965.36304 0.015183
3966.04102 0.01589
3966.71899 0.016596
3967.39795 0.017304
3968.07690 0.018013
3968.75610 0.018722
3969.43506 0.019432
3970.11401 0.020142
3970.79297 0.020852
3971.47290 0.021773
3972.15210 0.022894
3972.83203 0.024015
3973.51099 0.025137
3974.19092 0.026261
3974.87109 0.027385
3975.55200 0.028511
3976.23193 0.029637
3976.91211 0.030765
3977.59204 0.031893
3978.27295 0.033023
3978.95410 0.034153
3979.63403 0.035285
3980.31494 0.036417
3980.99609 0.037551
3981.67700 0.038924
3982.35889 0.040355
3983.04004 0.041787
3983.72095 0.043221
3984.40308 0.044656
3985.08496 0.046091
3985.76709 0.047529
3986.44800 0.048967
3987.13110 0.050407
3987.81299 0.051848
3988.49512 0.05329
3989.17700 0.054734
3989.86011 0.056179
3990.54297 0.057628
3991.22510 0.059094
3991.90796 0.060658
3992.59106 0.062223
3993.27393 0.06379
3993.95801 0.065359
3994.64111 0.066929
3995.32397 0.0685
3996.00806 0.070073
3996.69189 0.071648
3997.37500 0.073224
3998.06006 0.074802
3998.74292 0.076381
3999.42798 0.077962
4000.11206 0.07954
4000.79590 0.081099
4001.48096 0.082642
4002.16602 0.08417
4002.85010 0.085699
4003.53491 0.087228
4004.21997 0.088758
4004.90503 0.090289
4005.59009 0.091819
4006.27588 0.093351
4006.96094 0.094883
4007.64697 0.096416
4008.33301 0.09795
4009.01807 0.099483
4009.70410 0.101017
4010.38989 0.102552
4011.07593 0.104088
4011.76294 0.105409
4012.44897 0.106711
4013.13501 0.108014
4013.82202 0.109317
4014.50903 0.110621
4015.19604 0.111925
4015.88306 0.113229
4016.57007 0.114534
4017.25708 0.11584
4017.94409 0.117145
4018.63208 0.118452
4019.31909 0.119759
4020.00708 0.121066
4020.69507 0.122381
4021.38306 0.123597
4022.07104 0.124635
4022.75903 0.125674
4023.44702 0.126713
4024.13599 0.127752
4024.82397 0.128792
4025.51294 0.129832
4026.20190 0.130874
4026.88989 0.131915
4027.57910 0.132957
4028.26904 0.134
4028.95801 0.135043
4029.64697 0.136086
4030.33594 0.137129
4031.02588 0.138171
4031.71606 0.139003
4032.40601 0.139794
4033.09497 0.140586
4033.78491 0.141378
4034.47607 0.14217
4035.16602 0.142963
4035.85596 0.143756
4036.54712 0.144549
4037.23804 0.145343
4037.92798 0.146137
4038.61890 0.146932
4039.31006 0.147726
4040.00098 0.148522
4040.69189 0.149317
4041.38403 0.150042
4042.07495 0.150635
4042.76709 0.151228
4043.45801 0.151822
4044.14990 0.152416
4044.84204 0.15301
4045.53394 0.153604
4046.22705 0.154199
4046.91895 0.154793
4047.61108 0.155389
4048.30396 0.155984
4048.99609 0.15658
4049.68896 0.157176
4050.38208 0.157777
4051.07495 0.158383
4051.76807 0.158843
4052.46094 0.159286
4053.15503 0.15973
4053.84790 0.160174
4054.54199 0.160619
4055.23511 0.161063
4055.92896 0.161508
4056.62305 0.161954
4057.31689 0.162399
4058.01099 0.162845
4058.70605 0.163291
4059.39990 0.163737
4060.09497 0.164182
4060.78906 0.164618
4061.48389 0.165007
4062.17896 0.165346
4062.87402 0.165685
4063.56909 0.166024
4064.26392 0.166363
4064.95996 0.166702
4065.65503 0.167041
4066.35107 0.167381
4067.04712 0.16772
4067.74194 0.16806
4068.43799 0.1684
4069.13501 0.16874
4069.83105 0.16908
4070.52710 0.169421
4071.22412 0.169754
4071.91992 0.170026
4072.61694 0.170298
4073.31396 0.17057
4074.01001 0.170842
4074.70801 0.171114
4075.40503 0.171387
4076.10205 0.171659
4076.79907 0.171932
4077.49707 0.172205
4078.19507 0.172478
4078.89209 0.172751
4079.59009 0.173024
4080.28809 0.173301
4080.98608 0.173585
4081.68506 0.173823
4082.38306 0.174046
4083.08105 0.174269
4083.78003 0.174493
4084.47900 0.174716
4085.17700 0.17494
4085.87598 0.175164
4086.57495 0.175388
4087.27490 0.175612
4087.97412 0.175837
4088.67310 0.176061
4089.37305 0.176285
4090.07300 0.176509
4090.77197 0.176723
4091.47192 0.17693
4092.17212 0.177129
4092.87305 0.177329
4093.57300 0.177529
4094.27295 0.177728
4094.97412 0.177928
4095.67407 0.178128
4096.37500 0.178328
4097.07617 0.178528
4097.77686 0.178728
4098.47803 0.178928
4099.17920 0.179128
4099.88086 0.179329
4100.58203 0.179529
4101.28418 0.179721
4101.98486 0.179872
4102.68701 0.180024
4103.38916 0.180175
4104.09082 0.180327
4104.79297 0.180479
4105.49609 0.180631
4106.19824 0.180783
4106.90088 0.180935
4107.60400 0.181087
4108.30615 0.181239
4109.00879 0.181391
4109.71191 0.181543
4110.41504 0.181702
4111.11914 0.181865
4111.82178 0.182016
4112.52490 0.182166
4113.22900 0.182316
4113.93311 0.182467
4114.63721 0.182617
4115.34082 0.182767
4116.04492 0.182918
4116.74902 0.183069
4117.45312 0.183219
4118.15820 0.18337
4118.86182 0.183521
4119.56689 0.183672
4120.27197 0.183818
4120.97705 0.183958
4121.68213 0.184109
4122.38721 0.184263
4123.09180 0.184418
4123.79785 0.184573
4124.50293 0.184728
4125.20898 0.184883
4125.91504 0.185038
4126.62109 0.185193
4127.32715 0.185348
4128.03320 0.185503
4128.73877 0.185658
4129.44580 0.185813
4130.15186 0.185969
4130.85889 0.186124
4131.56592 0.186268
4132.27197 0.186404
4132.97900 0.18654
4133.68701 0.186677
4134.39404 0.186813
4135.10205 0.186949
4135.80908 0.187086
4136.51709 0.187222
4137.22412 0.187359
4137.93213 0.187495
4138.64014 0.187632
4139.34814 0.187768
4140.05713 0.187905
4140.76514 0.188042
4141.47314 0.188193
4142.18213 0.188363
4142.89111 0.188534
4143.59912 0.188704
4144.30811 0.188874
4145.01807 0.189045
4145.72705 0.189216
4146.43604 0.189386
4147.14600 0.189557
4147.85498 0.189728
4148.56396 0.189899
4149.27393 0.19007
4149.98389 0.190241
4150.69385 0.190423
4151.40381 0.190607
4152.11523 0.190796
4152.82520 0.190984
4153.53613 0.191172
4154.24609 0.191361
4154.95703 0.191549
4155.66797 0.191738
4156.37891 0.191927
4157.08984 0.192116
4157.80078 0.192304
4158.51318 0.192494
4159.22412 0.192683
4159.93604 0.192872
4160.64697 0.19305
4161.35889 0.193233
4162.07080 0.193431
4162.78418 0.193629
4163.49609 0.193827
4164.20801 0.194025
4164.91992 0.194223
4165.63281 0.194421
4166.34619 0.194619
4167.05908 0.194818
4167.77100 0.195016
4168.48486 0.195215
4169.19824 0.195413
4169.91113 0.195612
4170.62500 0.19581
4171.33789 0.196014
4172.05176 0.196236
4172.76611 0.196458
4173.47998 0.196681
4174.19385 0.196903
4174.90820 0.197125
4175.62305 0.197348
4176.33691 0.19757
4177.05078 0.197793
4177.76611 0.198015
4178.48096 0.198238
4179.19580 0.198461
4179.91113 0.198684
4180.62598 0.198918
4181.34082 0.199149
4182.05713 0.199369
4182.77197 0.19959
4183.48779 0.19981
4184.20410 0.20003
4184.91895 0.200251
4185.63477 0.200471
4186.35205 0.200692
4187.06787 0.200913
4187.78418 0.201134
4188.50000 0.201355
4189.21680 0.201576
4189.93408 0.201797
4190.65088 0.202007
4191.36816 0.202215
4192.08496 0.202421
4192.80176 0.202626
4193.52002 0.202832
4194.23682 0.203038
4194.95508 0.203243
4195.67188 0.203449
4196.39111 0.203655
4197.10791 0.203861
4197.82715 0.204067
4198.54492 0.204273
4199.26318 0.20448
4199.98096 0.204686
4200.70020 0.204892
4201.41895 0.205092
4202.13818 0.205279
4202.85596 0.205466
4203.57617 0.205654
4204.29492 0.205841
4205.01416 0.206028
4205.73389 0.206216
4206.45312 0.206403
4207.17285 0.206591
4207.89307 0.206778
4208.61279 0.206966
4209.33301 0.207154
4210.05322 0.207342
4210.77295 0.207529
4211.49414 0.207704
4212.21387 0.207863
4212.93506 0.208021
4213.65576 0.208179
4214.37695 0.208337
4215.09814 0.208496
4215.81885 0.208654
4216.54102 0.208813
4217.26221 0.208971
4217.98291 0.20913
4218.70508 0.209289
4219.42676 0.209447
4220.14893 0.209609
4220.87109 0.209781
4221.59277 0.209933
4222.31494 0.21007
4223.03809 0.210207
4223.75977 0.210344
4224.48291 0.210481
4225.20605 0.210618
4225.92920 0.210756
4226.65088 0.210893
4227.37500 0.21103
4228.09814 0.211168
4228.82080 0.211305
4229.54492 0.211443
4230.26904 0.211573
4230.99219 0.211692
4231.71582 0.211771
4232.43994 0.211835
4233.16504 0.211898
4233.88916 0.211962
4234.61279 0.212026
4235.33691 0.21209
4236.06201 0.212153
4236.78711 0.212217
4237.51221 0.212281
4238.23682 0.212345
4238.96191 0.212409
4239.68799 0.212473
4240.41309 0.212536
4241.13818 0.2126
4241.86377 0.212634
4242.58984 0.212666
4243.31494 0.212697
4244.04199 0.212728
4244.76807 0.21276
4245.49414 0.212791
4246.22021 0.212823
4246.94678 0.212854
4247.67285 0.212886
4248.39990 0.212917
4249.12695 0.212949
4249.85400 0.21298
4250.58105 0.213022
4251.30908 0.213062
4252.03613 0.213074
4252.76318 0.213087
4253.49121 0.213099
4254.21924 0.213112
4254.94678 0.213124
4255.67383 0.213136
4256.40283 0.213149
4257.13086 0.213161
4257.85889 0.213173
4258.58789 0.213186
4259.31592 0.213198
4260.04492 0.21321
4260.77393 0.213209
4261.50293 0.213205
4262.23193 0.213197
4262.96094 0.21319
4263.69092 0.213182
4264.41992 0.213174
4265.14990 0.213167
4265.87891 0.213159
4266.60889 0.213151
4267.33887 0.213143
4268.06982 0.213136
4268.79980 0.213128
4269.52979 0.21312
4270.26123 0.213112
4270.99121 0.213105
4271.72217 0.213092
4272.45312 0.213077
4273.18408 0.213062
4273.91504 0.213048
4274.64600 0.213033
4275.37695 0.213018
4276.10889 0.213004
4276.84082 0.212989
4277.57324 0.212974
4278.30420 0.212959
4279.03613 0.212945
4279.76904 0.21293
4280.50098 0.212915
4281.23291 0.212902
4281.96582 0.212932
4282.69824 0.212963
4283.43115 0.212993
4284.16406 0.213024
4284.89697 0.213054
4285.62988 0.213085
4286.36279 0.213115
4287.09717 0.213146
4287.83008 0.213176
4288.56299 0.213207
4289.29688 0.213237
4290.03076 0.213268
4290.76514 0.213312
4291.50000 0.213369
4292.23389 0.213447
4292.96777 0.213524
4293.70312 0.213601
4294.43701 0.213678
4295.17188 0.213756
4295.90723 0.213833
4296.64209 0.213911
4297.37695 0.213988
4298.11182 0.214065
4298.84814 0.214143
4299.58301 0.21422
4300.31885 0.214292
4301.05518 0.214356
4301.79102 0.214458
4302.52588 0.214569
4303.26318 0.214681
4303.99902 0.214792
4304.73486 0.214904
4305.47217 0.215016
4306.20801 0.215127
4306.94482 0.215239
4307.68213 0.215351
4308.41895 0.215463
4309.15576 0.215575
4309.89404 0.215686
4310.63086 0.215798
4311.36914 0.215919
4312.10596 0.216075
4312.84424 0.216231
4313.58203 0.216386
4314.31982 0.216542
4315.05811 0.216698
4315.79590 0.216854
4316.53516 0.21701
4317.27295 0.217166
4318.01221 0.217322
4318.75000 0.217478
4319.49023 0.217634
4320.22900 0.21779
4320.96777 0.217947
4321.70703 0.218118
4322.44580 0.218297
4323.18604 0.218477
4323.92578 0.218656
4324.66602 0.218835
4325.40479 0.219015
4326.14600 0.219194
4326.88623 0.219374
4327.62598 0.219553
4328.36621 0.219733
4329.10693 0.219913
4329.84814 0.220092
4330.58789 0.220283
4331.33008 0.22048
4332.06982 0.220695
4332.81201 0.220909
4333.55322 0.221124
4334.29395 0.221339
4335.03613 0.221554
4335.77783 0.221769
4336.52002 0.221985
4337.26123 0.2222
4338.00293 0.222415
4338.74609 0.222631
4339.48779 0.222846
4340.22998 0.223057
4340.97314 0.223259
4341.71582 0.223448
4342.45801 0.22363
4343.20215 0.223813
4343.94482 0.223995
4344.68799 0.224178
4345.43115 0.224361
4346.17480 0.224543
4346.91797 0.224726
4347.66211 0.224909
4348.40576 0.225092
4349.14990 0.225275
4349.89404 0.225458
4350.63818 0.225641
4351.38281 0.225817
4352.12695 0.225964
4352.87207 0.226111
4353.61719 0.226259
4354.36084 0.226406
4355.10596 0.226554
4355.85205 0.226701
4356.59717 0.226849
4357.34180 0.226997
4358.08789 0.227144
4358.83301 0.227292
4359.57910 0.22744
4360.32520 0.227588
4361.07080 0.227736
4361.81689 0.227856
4362.56299 0.227969
4363.31006 0.228083
4364.05713 0.228196
4364.80322 0.22831
4365.54980 0.228423
4366.29688 0.228537
4367.04395 0.22865
4367.79102 0.228764
4368.53906 0.228878
4369.28613 0.228991
4370.03418 0.229105
4370.78076 0.229234
4371.52881 0.229339
4372.27686 0.229408
4373.02490 0.229478
4373.77295 0.229548
4374.52100 0.229618
4375.27002 0.229688
4376.01904 0.229758
4376.76709 0.229828
4377.51611 0.229898
4378.26514 0.229968
4379.01416 0.230038
4379.76318 0.230108
4380.51318 0.230168
4381.26221 0.230222
4382.01221 0.230251
4382.76221 0.230281
4383.51123 0.23031
4384.26123 0.230339
4385.01221 0.230368
4385.76221 0.230397
4386.51221 0.230426
4387.26318 0.230455
4388.01318 0.230484
4388.76416 0.230514
4389.51514 0.230543
4390.26611 0.230572
4391.01709 0.230601
4391.76904 0.230606
4392.52002 0.230601
4393.27100 0.230596
4394.02295 0.230591
4394.77490 0.230587
4395.52686 0.230582
4396.27881 0.230577
4397.03076 0.230572
4397.78320 0.230567
4398.53613 0.230562
4399.28906 0.230557
4400.04102 0.230552
4400.79395 0.230547
4401.54688 0.230541
4402.29980 0.230531
4403.05322 0.230521
4403.80713 0.230512
4404.56006 0.230502
4405.31299 0.230493
4406.06689 0.230483
4406.82080 0.230473
4407.57520 0.230464
4408.32910 0.230454
4409.08301 0.230444
4409.83789 0.230435
4410.59180 0.230425
4411.34717 0.23042
4412.10205 0.230441
4412.85596 0.230462
4413.61084 0.230484
4414.36719 0.230505
4415.12207 0.230526
4415.87695 0.230547
4416.63281 0.230569
4417.38916 0.23059
4418.14502 0.230612
4418.89990 0.230633
4419.65576 0.230654
4420.41309 0.230684
4421.16895 0.23072
4421.92480 0.230781
4422.68213 0.230845
4423.43799 0.230909
4424.19482 0.230973
4424.95215 0.231037
4425.70898 0.231101
4426.46680 0.231165
4427.22412 0.23123
4427.98096 0.231294
4428.73877 0.231358
4429.49707 0.231422
4430.25391 0.231483
4431.01318 0.231539
4431.77100 0.231624
4432.52881 0.231721
4433.28809 0.231819
4434.04590 0.231916
4434.80518 0.232014
4435.56299 0.232112
4436.32178 0.232209
4437.08105 0.232307
4437.83984 0.232405
4438.60010 0.232502
4439.35889 0.2326
4440.11914 0.232698
4440.87793 0.232796
4441.63818 0.232916
4442.39795 0.233059
4443.15820 0.233201
4443.91797 0.233343
4444.67920 0.233486
4445.43896 0.233628
4446.20020 0.233771
4446.95996 0.233913
4447.72119 0.234056
4448.48193 0.234199
4449.24316 0.234342
4450.00488 0.234485
4450.76611 0.234627
4451.52686 0.234785
4452.28906 0.234967
4453.05078 0.23515
4453.81299 0.235333
4454.57520 0.235516
4455.33691 0.235699
4456.09912 0.235882
4456.86182 0.236066
4457.62402 0.236249
4458.38721 0.236432
4459.14990 0.236616
4459.91309 0.236799
4460.67578 0.236996
4461.43896 0.237199
4462.20215 0.237414
4462.96582 0.237629
4463.72900 0.237844
4464.49316 0.238059
4465.25684 0.238274
4466.02100 0.238489
4466.78516 0.238704
4467.54883 0.23892
4468.31299 0.239135
4469.07812 0.239351
4469.84277 0.239566
4470.60693 0.23977
4471.37305 0.239973
4472.13721 0.240188
4472.90186 0.240403
4473.66797 0.240619
4474.43311 0.240835
4475.19922 0.241051
4475.96387 0.241266
4476.72998 0.241483
4477.49609 0.241699
4478.26221 0.241915
4479.02783 0.242131
4479.79492 0.242347
4480.56201 0.242564
4481.32812 0.242779
4482.09521 0.242984
4482.86084 0.243189
4483.62793 0.243394
4484.39600 0.243599
4485.16309 0.243804
4485.93018 0.244009
4486.69824 0.244215
4487.46484 0.24442
4488.23291 0.244626
4489.00098 0.244831
4489.76904 0.245037
4490.53809 0.245243
4491.30615 0.245447
4492.07422 0.245621
4492.84277 0.245796
4493.61084 0.245971
4494.37988 0.246146
4495.14893 0.246321
4495.91797 0.246496
4496.68701 0.246671
4497.45703 0.246847
4498.22705 0.247022
4498.99609 0.247197
4499.76611 0.247373
4500.53613 0.247535
4501.30615 0.24769
4502.07617 0.247824
4502.84619 0.247957
4503.61719 0.248091
4504.38721 0.248225
4505.15820 0.24836
4505.92920 0.248494
4506.69922 0.248628
4507.47119 0.248762
4508.24219 0.248896
4509.01318 0.24903
4509.78516 0.249165
4510.55615 0.249311
4511.32812 0.249457
4512.10010 0.249552
4512.87207 0.249646
4513.64404 0.249741
4514.41602 0.249836
4515.18799 0.249931
4515.96094 0.250026
4516.73389 0.250121
4517.50586 0.250216
4518.27881 0.250312
4519.05176 0.250407
4519.82617 0.250502
4520.59912 0.250584
4521.37305 0.250661
4522.14600 0.250727
4522.91895 0.250793
4523.69287 0.250859
4524.46680 0.250925
4525.24219 0.250991
4526.01611 0.251057
4526.79004 0.251123
4527.56494 0.251188
4528.33887 0.251254
4529.11377 0.25132
4529.88916 0.251386
4530.66406 0.251452
4531.43896 0.251515
4532.21387 0.251563
4532.99023 0.251612
4533.76611 0.251661
4534.54199 0.25171
4535.31689 0.251759
4536.09277 0.251808
4536.86914 0.251856
4537.64600 0.251905
4538.42188 0.251954
4539.19824 0.252003
4539.97510 0.252052
4540.75098 0.252101
4541.52881 0.252144
4542.30615 0.252176
4543.08301 0.252208
4543.85986 0.25224
4544.63818 0.252272
4545.41504 0.252304
4546.19287 0.252336
4546.97119 0.252368
4547.74902 0.2524
4548.52686 0.252432
4549.30518 0.252464
4550.08301 0.252496
4550.86182 0.252528
4551.64014 0.252567
4552.41895 0.252613
4553.19824 0.25266
4553.97705 0.252706
4554.75586 0.252753
4555.53613 0.252799
4556.31494 0.252846
4557.09521 0.252893
4557.87402 0.252939
4558.65381 0.252986
4559.43408 0.253032
4560.21387 0.253084
4560.99414 0.253147
4561.77490 0.253198
4562.55518 0.253242
4563.33594 0.253287
4564.11719 0.253331
4564.89697 0.253375
4565.67920 0.25342
4566.45898 0.253464
4567.24121 0.253508
4568.02197 0.253553
4568.80420 0.253597
4569.58496 0.253641
4570.36816 0.253678
4571.14893 0.253705
4571.93213 0.253732
4572.71387 0.253758
4573.49609 0.253784
4574.27881 0.25381
4575.06104 0.253836
4575.84424 0.253863
4576.62695 0.253889
4577.41016 0.253915
4578.19287 0.253941
4578.97705 0.253967
4579.75977 0.253994
4580.54297 0.25402
4581.32715 0.254046
4582.11084 0.25407
4582.89502 0.254094
4583.67920 0.254117
4584.46289 0.254141
4585.24805 0.254165
4586.03223 0.254189
4586.81689 0.254213
4587.60205 0.254237
4588.38721 0.254261
4589.17090 0.254284
4589.95703 0.254308
4590.74219 0.254332
4591.52686 0.254349
4592.31299 0.254349
4593.09912 0.25435
4593.88477 0.25435
4594.67090 0.25435
4595.45703 0.254351
4596.24316 0.254351
4597.02881 0.254351
4597.81592 0.254352
4598.60303 0.254352
4599.39014 0.254352
4600.17578 0.254353
4600.96289 0.254353
4601.75000 0.254351
4602.53809 0.254348
4603.32520 0.254345
4604.11279 0.254341
4604.90088 0.254338
4605.68799 0.254335
4606.47705 0.254331
4607.26514 0.254328
4608.05322 0.254325
4608.84082 0.254321
4609.62988 0.254318
4610.41895 0.254324
4611.20801 0.254337
4611.99707 0.254308
4612.78613 0.254272
4613.57520 0.254237
4614.36377 0.254202
4615.15381 0.254166
4615.94287 0.254131
4616.73291 0.254095
4617.52295 0.25406
4618.31299 0.254024
4619.10303 0.253989
4619.89404 0.253953
4620.68408 0.253903
4621.47510 0.253849
4622.26514 0.253788
4623.05615 0.253728
4623.84717 0.253667
4624.63818 0.253607
4625.42920 0.253547
4626.22119 0.253486
4627.01221 0.253426
4627.80420 0.253365
4628.59619 0.253305
4629.38818 0.253244
4630.18018 0.253183
4630.97217 0.253118
4631.76416 0.253041
4632.55713 0.252955
4633.34912 0.252869
4634.14209 0.252784
4634.93506 0.252698
4635.72803 0.252612
4636.52100 0.252526
4637.31396 0.252441
4638.10791 0.252355
4638.90088 0.252269
4639.69482 0.252183
4640.48877 0.252097
4641.28320 0.252012
4642.07715 0.251926
4642.87109 0.25184
4643.66602 0.251754
4644.45996 0.251668
4645.25488 0.251582
4646.04883 0.251496
4646.84424 0.25141
4647.64014 0.251324
4648.43506 0.251238
4649.22998 0.251152
4650.02490 0.251066
4650.82080 0.25098
4651.61719 0.250894
4652.41309 0.250808
4653.20801 0.250723
4654.00488 0.250637
4654.80078 0.250551
4655.59717 0.250465
4656.39404 0.250379
4657.18994 0.250293
4657.98682 0.250207
4658.78418 0.250121
4659.58203 0.250034
4660.37891 0.249948
4661.17578 0.249862
4661.97412 0.249794
4662.77100 0.249729
4663.56885 0.249665
4664.36719 0.2496
4665.16504 0.249535
4665.96289 0.24947
4666.76123 0.249405
4667.56006 0.24934
4668.35791 0.249276
4669.15723 0.249211
4669.95605 0.249146
4670.75488 0.249097
4671.55420 0.24906
4672.35400 0.249049
4673.15283 0.249037
4673.95312 0.249026
4674.75195 0.249014
4675.55176 0.249003
4676.35205 0.248992
4677.15186 0.24898
4677.95215 0.248969
4678.75293 0.248957
4679.55322 0.248946
4680.35400 0.248927
4681.15479 0.248899
4681.95605 0.248888
4682.75684 0.248881
4683.55811 0.248874
4684.35889 0.248867
4685.16113 0.24886
4685.96191 0.248853
4686.76416 0.248846
4687.56592 0.248839
4688.36816 0.248832
4689.16992 0.248825
4689.97217 0.248818
4690.77490 0.248811
4691.57715 0.248824
4692.37988 0.248876
4693.18311 0.248928
4693.98584 0.24898
4694.78906 0.249032
4695.59180 0.249084
4696.39600 0.249137
4697.19922 0.249189
4698.00293 0.249241
4698.80713 0.249293
4699.60986 0.249345
4700.41504 0.249397
4701.21924 0.24945
4702.02295 0.249533
4702.82812 0.249621
4703.63184 0.24971
4704.43701 0.249798
4705.24219 0.249886
4706.04688 0.249974
4706.85205 0.250062
4707.65820 0.25015
4708.46289 0.250238
4709.26904 0.250327
4710.07422 0.250415
4710.87988 0.250503
4711.68604 0.250601
4712.49219 0.250712
4713.29785 0.250822
4714.10498 0.250933
4714.91211 0.251043
4715.71777 0.251154
4716.52490 0.251264
4717.33203 0.251375
4718.13916 0.251485
4718.94580 0.251596
4719.75391 0.251706
4720.56201 0.251817
4721.36914 0.25193
4722.17676 0.252084
4722.98486 0.252237
4723.79297 0.25239
4724.60107 0.252544
4725.40918 0.252697
4726.21777 0.252851
4727.02588 0.253004
4727.83496 0.253158
4728.64404 0.253312
4729.45312 0.253465
4730.26221 0.253619
4731.07178 0.253773
4731.88086 0.253914
4732.69092 0.25405
4733.50000 0.254186
4734.31104 0.254322
4735.12109 0.254459
4735.93115 0.254595
4736.74121 0.254731
4737.55078 0.254867
4738.36182 0.255003
4739.17188 0.25514
4739.98291 0.255276
4740.79395 0.25543
4741.60498 0.255586
4742.41699 0.255748
4743.22803 0.255909
4744.04004 0.25607
4744.85205 0.256232
4745.66309 0.256393
4746.47510 0.256555
4747.28711 0.256716
4748.10010 0.256878
4748.91211 0.257039
4749.72510 0.257201
4750.53711 0.257351
4751.35010 0.257495
4752.16309 0.257635
4752.97607 0.257774
4753.78906 0.257914
4754.60303 0.258054
4755.41602 0.258193
4756.22900 0.258333
4757.04297 0.258472
4757.85693 0.258612
4758.67090 0.258752
4759.48486 0.258892
4760.29980 0.259032
4761.11377 0.259171
4761.92920 0.259287
4762.74414 0.259393
4763.55908 0.259499
4764.37402 0.259605
4765.18799 0.259712
4766.00391 0.259818
4766.81885 0.259924
4767.63477 0.260031
4768.45117 0.260137
4769.26709 0.260244
4770.08301 0.26035
4770.89795 0.260456
4771.71484 0.26056
4772.53076 0.26066
4773.34814 0.26076
4774.16504 0.26086
4774.98096 0.26096
4775.79785 0.261061
4776.61523 0.261161
4777.43311 0.261261
4778.25000 0.261361
4779.06689 0.261462
4779.88477 0.261562
4780.70312 0.261662
4781.52100 0.26175
4782.33887 0.261797
4783.15723 0.261843
4783.97607 0.261889
4784.79395 0.261935
4785.61279 0.261981
4786.43213 0.262028
4787.25000 0.262074
4788.06982 0.26212
4788.88916 0.262167
4789.70801 0.262213
4790.52783 0.262259
4791.34717 0.262306
4792.16699 0.262367
4792.98682 0.262427
4793.80713 0.262489
4794.62695 0.262549
4795.44824 0.26261
4796.26807 0.262671
4797.08887 0.262732
4797.91016 0.262793
4798.72998 0.262854
4799.55078 0.262915
4800.37305 0.262976
4801.19385 0.263037
4802.01611 0.263078
4802.83691 0.263115
4803.65918 0.263151
4804.47998 0.263188
4805.30322 0.263224
4806.12500 0.263261
4806.94678 0.263297
4807.77002 0.263333
4808.59180 0.26337
4809.41504 0.263406
4810.23779 0.263448
4811.06104 0.263503
4811.88379 0.263552
4812.70703 0.263597
4813.53076 0.263642
4814.35400 0.263687
4815.17822 0.263732
4816.00098 0.263777
4816.82617 0.263822
4817.64990 0.263867
4818.47412 0.263912
4819.29785 0.263957
4820.12305 0.264
4820.94824 0.264026
4821.77197 0.264069
4822.59814 0.264126
4823.42285 0.264183
4824.24805 0.26424
4825.07324 0.264298
4825.89893 0.264355
4826.72510 0.264412
4827.54980 0.264469
4828.37598 0.264526
4829.20312 0.264584
4830.02881 0.264641
4830.85498 0.264696
4831.68213 0.264743
4832.50781 0.264778
4833.33496 0.264813
4834.16211 0.264848
4834.98877 0.264883
4835.81592 0.264918
4836.64404 0.264953
4837.47119 0.264988
4838.29883 0.265023
4839.12695 0.265058
4839.95508 0.265093
4840.78320 0.265128
4841.61084 0.265171
4842.43896 0.265232
4843.26807 0.265293
4844.09717 0.265354
4844.92480 0.265415
4845.75391 0.265476
4846.58301 0.265537
4847.41309 0.265598
4848.24219 0.265659
4849.07178 0.26572
4849.90088 0.265782
4850.73096 0.265842
4851.56104 0.265904
4852.39111 0.265968
4853.22119 0.266032
4854.05176 0.266096
4854.88184 0.26616
4855.71289 0.266224
4856.54297 0.266288
4857.37500 0.266353
4858.20605 0.266417
4859.03711 0.266481
4859.86816 0.266545
4860.70020 0.266609
4861.53076 0.266672
4862.36279 0.266729
4863.19482 0.266786
4864.02686 0.266843
4864.85889 0.2669
4865.69092 0.266957
4866.52393 0.267014
4867.35693 0.267072
4868.18896 0.267129
4869.02197 0.267186
4869.85498 0.267243
4870.68799 0.2673
4871.52197 0.267354
4872.35498 0.267392
4873.18896 0.267431
4874.02295 0.26747
4874.85693 0.267508
4875.69092 0.267547
4876.52490 0.267586
4877.35889 0.267625
4878.19385 0.267663
4879.02783 0.267702
4879.86279 0.267741
4880.69824 0.26778
4881.53320 0.267814
4882.36914 0.26783
4883.20410 0.267846
4884.04004 0.267861
4884.87500 0.267877
4885.71094 0.267894
4886.54688 0.267909
4887.38281 0.267925
4888.21924 0.267941
4889.05518 0.267957
4889.89209 0.267973
4890.72900 0.268006
4891.56494 0.268035
4892.40186 0.268044
4893.23877 0.268054
4894.07617 0.268064
4894.91406 0.268073
4895.75098 0.268083
4896.58887 0.268092
4897.42676 0.268102
4898.26514 0.268111
4899.10303 0.268121
4899.94092 0.26813
4900.77881 0.268122
4901.61816 0.2681
4902.45703 0.268048
4903.29492 0.267997
4904.13379 0.267945
4904.97314 0.267893
4905.81299 0.267841
4906.65186 0.267789
4907.49121 0.267737
4908.33105 0.267685
4909.16992 0.267634
4910.01123 0.267582
4910.85107 0.26753
4911.69092 0.267468
4912.53076 0.267392
4913.37207 0.267315
4914.21191 0.267239
4915.05322 0.267162
4915.89404 0.267086
4916.73486 0.267009
4917.57715 0.266933
4918.41797 0.266856
4919.25879 0.266779
4920.10107 0.266703
4920.94287 0.266626
4921.78516 0.266532
4922.62695 0.266419
4923.46924 0.266307
4924.31201 0.266194
4925.15381 0.266082
4925.99707 0.265969
4926.83887 0.265856
4927.68213 0.265744
4928.52490 0.265631
4929.36914 0.265518
4930.21191 0.265406
4931.05615 0.265293
4931.89893 0.26517
4932.74316 0.265041
4933.58691 0.264912
4934.43115 0.264783
4935.27490 0.264653
4936.12012 0.264524
4936.96387 0.264395
4937.80908 0.264266
4938.65381 0.264136
4939.49902 0.264007
4940.34424 0.263878
4941.18896 0.263748
4942.03516 0.263607
4942.87988 0.263463
4943.72607 0.263318
4944.57178 0.263174
4945.41797 0.263029
4946.26416 0.262885
4947.10986 0.26274
4947.95703 0.262595
4948.80322 0.262451
4949.64990 0.262306
4950.49707 0.262161
4951.34424 0.262016
4952.19092 0.26186
4953.03809 0.261702
4953.88623 0.261545
4954.73291 0.261387
4955.58105 0.261229
4956.42920 0.261072
4957.27686 0.260914
4958.12500 0.260756
4958.97314 0.260599
4959.82178 0.260441
4960.66992 0.260283
4961.51904 0.26013
4962.36816 0.260005
4963.21680 0.259879
4964.06592 0.259754
4964.91602 0.259628
4965.76514 0.259503
4966.61523 0.259377
4967.46387 0.259251
4968.31396 0.259126
4969.16504 0.259
4970.01514 0.258874
4970.86523 0.258748
4971.71484 0.258623
4972.56592 0.258498
4973.41699 0.258372
4974.26807 0.258247
4975.11914 0.258122
4975.97021 0.257996
4976.82080 0.257871
4977.67285 0.257746
4978.52393 0.25762
4979.37598 0.257495
4980.22803 0.257369
4981.08105 0.257244
4981.93311 0.257134
4982.78516 0.257033
4983.63818 0.256932
4984.49023 0.256831
4985.34277 0.25673
4986.19580 0.256629
4987.04883 0.256528
4987.90186 0.256427
4988.75586 0.256326
4989.60889 0.256225
4990.46289 0.256134
4991.31689 0.256051
4992.17090 0.256015
4993.02490 0.255982
4993.87891 0.25595
4994.73291 0.255918
4995.58789 0.255885
4996.44287 0.255853
4997.29785 0.255821
4998.15283 0.255788
4999.00781 0.255756
4999.86279 0.255724
5000.71924 0.255671
5001.57422 0.255614
5002.43018 0.255553
5003.28613 0.255493
5004.14209 0.255433
5004.99805 0.255373
5005.85400 0.255312
5006.71094 0.255252
5007.56689 0.255192
5008.42383 0.255131
5009.28076 0.255071
5010.13818 0.25501
5010.99609 0.25495
5011.85303 0.25492
5012.70996 0.254916
5013.56787 0.254912
5014.42578 0.254908
5015.28418 0.254904
5016.14209 0.2549
5017.00000 0.254896
5017.85791 0.254892
5018.71680 0.254888
5019.57617 0.254884
5020.43506 0.25488
5021.29297 0.254876
5022.15186 0.254894
5023.01221 0.254916
5023.87109 0.254938
5024.73096 0.25496
5025.58984 0.254982
5026.45020 0.255003
5027.31104 0.255025
5028.16992 0.255047
5029.03076 0.255069
5029.89111 0.25509
5030.75195 0.255108
5031.61279 0.255121
5032.47412 0.255124
5033.33398 0.255127
5034.19580 0.25513
5035.05713 0.255132
5035.91797 0.255135
5036.77979 0.255138
5037.64209 0.25514
5038.50391 0.255143
5039.36621 0.255146
5040.22803 0.255149
5041.08984 0.255151
5041.95312 0.255174
5042.81494 0.255207
5043.67822 0.25524
5044.54102 0.255274
5045.40381 0.255307
5046.26807 0.255341
5047.13086 0.255374
5047.99512 0.255408
5048.85791 0.255441
5049.72217 0.255474
5050.58594 0.255508
5051.45020 0.255542
5052.31396 0.255593
5053.17920 0.255644
5054.04297 0.255696
5054.90820 0.255747
5055.77295 0.255798
5056.63818 0.25585
5057.50293 0.255901
5058.36914 0.255953
5059.23389 0.256004
5060.10010 0.256055
5060.96484 0.256107
5061.83105 0.256147
5062.69678 0.256175
5063.56299 0.256203
5064.43018 0.256231
5065.29590 0.256259
5066.16309 0.256287
5067.02979 0.256315
5067.89600 0.256343
5068.76416 0.256371
5069.63086 0.256399
5070.49902 0.256427
5071.36621 0.256455
5072.23291 0.256499
5073.10205 0.256543
5073.96924 0.256588
5074.83691 0.256632
5075.70605 0.256676
5076.57422 0.256721
5077.44287 0.256765
5078.31201 0.25681
5079.18115 0.256854
5080.04883 0.256899
5080.91797 0.256943
5081.78809 0.256979
5082.65723 0.257003
5083.52686 0.257028
5084.39697 0.257052
5085.26709 0.257076
5086.13721 0.257101
5087.00684 0.257125
5087.87695 0.257149
5088.74805 0.257174
5089.61914 0.257198
5090.48877 0.257222
5091.35986 0.257247
5092.23096 0.257267
5093.10303 0.257287
5093.97412 0.257307
5094.84619 0.257327
5095.71680 0.257346
5096.58887 0.257366
5097.46094 0.257386
5098.33301 0.257406
5099.20605 0.257426
5100.07812 0.257446
5100.95117 0.257466
5101.82324 0.257485
5102.69580 0.257501
5103.56885 0.257518
5104.44189 0.257534
5105.31592 0.257551
5106.18896 0.257567
5107.06299 0.257584
5107.93701 0.257601
5108.81104 0.257617
5109.68506 0.257634
5110.55908 0.25765
5111.43408 0.257667
5112.30811 0.257674
5113.18311 0.257682
5114.05811 0.257689
5114.93311 0.257697
5115.80811 0.257705
5116.68311 0.257712
5117.55811 0.25772
5118.43408 0.257727
5119.31006 0.257735
5120.18604 0.257742
5121.06201 0.25775
5121.93799 0.25775
5122.81396 0.257745
5123.68994 0.25774
5124.56689 0.257735
5125.44385 0.25773
5126.32080 0.257724
5127.19824 0.257719
5128.07520 0.257714
5128.95312 0.257709
5129.83008 0.257704
5130.70801 0.257714
5131.58496 0.25773
5132.46387 0.257756
5133.34180 0.257782
5134.22021 0.257808
5135.09912 0.257834
5135.97705 0.25786
5136.85596 0.257886
5137.73486 0.257912
5138.61377 0.257938
5139.49316 0.257964
5140.37207 0.257982
5141.25195 0.257989
5142.13086 0.257974
5143.01123 0.257955
5143.89111 0.257935
5144.77100 0.257916
5145.65088 0.257896
5146.53223 0.257877
5147.41309 0.257857
5148.29297 0.257838
5149.17383 0.257818
5150.05518 0.257799
5150.93604 0.257779
5151.81689 0.257751
5152.69922 0.257712
5153.58105 0.257673
5154.46191 0.257635
5155.34424 0.257596
5156.22607 0.257557
5157.10791 0.257518
5157.99121 0.257479
5158.87305 0.257441
5159.75586 0.257402
5160.63916 0.257363
5161.52100 0.257326
5162.40479 0.25731
5163.28809 0.257295
5164.17090 0.257279
5165.05518 0.257263
5165.93799 0.257248
5166.82324 0.257232
5167.70703 0.257217
5168.59082 0.257201
5169.47510 0.257185
5170.35889 0.25717
5171.24414 0.257154
5172.12891 0.257144
5173.01416 0.257136
5173.89893 0.257129
5174.78418 0.257121
5175.66895 0.257113
5176.55518 0.257105
5177.44092 0.257097
5178.32715 0.257089
5179.21191 0.257082
5180.09912 0.257074
5180.98486 0.257066
5181.87207 0.25704
5182.75781 0.256994
5183.64502 0.256949
5184.53223 0.256903
5185.41797 0.256857
5186.30615 0.256812
5187.19287 0.256766
5188.08105 0.25672
5188.96777 0.256675
5189.85596 0.256629
5190.74414 0.256583
5191.63184 0.256545
5192.52100 0.256533
5193.40918 0.256521
5194.29688 0.256509
5195.18604 0.256497
5196.07520 0.256485
5196.96387 0.256472
5197.85303 0.25646
5198.74316 0.256448
5199.63184 0.256436
5200.52100 0.256424
5201.41211 0.256412
5202.30078 0.256428
5203.19092 0.256445
5204.08203 0.256463
5204.97217 0.25648
5205.86279 0.256497
5206.75293 0.256514
5207.64404 0.256532
5208.53516 0.256549
5209.42578 0.256566
5210.31787 0.256583
5211.20898 0.256601
5212.10107 0.256606
5212.99316 0.256607
5213.88379 0.256608
5214.77588 0.256609
5215.66797 0.25661
5216.56104 0.256611
5217.45410 0.256612
5218.34619 0.256613
5219.23877 0.256615
5220.13184 0.256616
5221.02490 0.256617
5221.91797 0.256623
5222.81201 0.256634
5223.70605 0.256646
5224.59912 0.256657
5225.49316 0.256668
5226.38721 0.256679
5227.28076 0.256691
5228.17578 0.256702
5229.06982 0.256713
5229.96484 0.256725
5230.85986 0.256737
5231.75488 0.256765
5232.64990 0.256825
5233.54492 0.256885
5234.43994 0.256944
5235.33594 0.257003
5236.23193 0.257063
5237.12793 0.257123
5238.02393 0.257182
5238.91992 0.257242
5239.81592 0.257301
5240.71289 0.257361
5241.60889 0.257418
5242.50586 0.257462
5243.40283 0.257506
5244.29980 0.25755
5245.19824 0.257594
5246.09521 0.257639
5246.99316 0.257683
5247.89111 0.257727
5248.78906 0.257771
5249.68701 0.257815
5250.58398 0.25786
5251.48291 0.257903
5252.38086 0.257918
5253.27979 0.257933
5254.17920 0.257948
5255.07812 0.257963
5255.97705 0.257978
5256.87598 0.257993
5257.77588 0.258008
5258.67480 0.258023
5259.57520 0.258038
5260.47510 0.258053
5261.37500 0.258068
5262.27490 0.258103
5263.17480 0.258141
5264.07617 0.25818
5264.97705 0.258217
5265.87695 0.258256
5266.77783 0.258294
5267.68018 0.258332
5268.58105 0.25837
5269.48193 0.258408
5270.38379 0.258446
5271.28613 0.258484
5272.18701 0.258474
5273.08887 0.258453
5273.99219 0.258431
5274.89404 0.25841
5275.79590 0.258388
5276.69922 0.258367
5277.60205 0.258345
5278.50488 0.258324
5279.40820 0.258302
5280.31201 0.258281
5281.21484 0.258259
5282.11816 0.258197
5283.02197 0.258119
5283.92578 0.258041
5284.83008 0.257962
5285.73389 0.257884
5286.63916 0.257806
5287.54297 0.257728
5288.44824 0.257649
5289.35303 0.257571
5290.25781 0.257493
5291.16309 0.257415
5292.06787 0.257327
5292.97412 0.257234
5293.87891 0.257141
5294.78516 0.257048
5295.69092 0.256955
5296.59717 0.256862
5297.50293 0.256769
5298.40918 0.256676
5299.31592 0.256583
5300.22314 0.25649
5301.12891 0.256397
5302.03711 0.256238
5302.94287 0.25604
5303.85107 0.255842
5304.75781 0.255644
5305.66602 0.255445
5306.57422 0.255247
5307.48096 0.255048
5308.39014 0.25485
5309.29785 0.254651
5310.20703 0.254453
5311.11523 0.254254
5312.02295 0.254032
5312.93311 0.253795
5313.84082 0.253558
5314.75000 0.253321
5315.66016 0.253083
5316.56885 0.252846
5317.47900 0.252609
5318.38916 0.252372
5319.29883 0.252134
5320.20898 0.251897
5321.11914 0.251659
5322.02979 0.251415
5322.93994 0.251166
5323.85107 0.250917
5324.76221 0.250668
5325.67285 0.250419
5326.58398 0.25017
5327.49512 0.249921
5328.40723 0.249672
5329.31787 0.249423
5330.22998 0.249174
5331.14209 0.248925
5332.05420 0.248662
5332.96680 0.248391
5333.87891 0.24812
5334.79199 0.24785
5335.70508 0.247579
5336.61719 0.247308
5337.52979 0.247037
5338.44385 0.246765
5339.35693 0.246494
5340.27100 0.246223
5341.18408 0.245952
5342.09814 0.245671
5343.01221 0.245386
5343.92578 0.245101
5344.84082 0.244815
5345.75488 0.24453
5346.66992 0.244245
5347.58398 0.243959
5348.50000 0.243674
5349.41504 0.243388
5350.33008 0.243102
5351.24512 0.242817
5352.16113 0.242592
5353.07715 0.242389
5353.99219 0.242185
5354.90918 0.241982
5355.82520 0.241779
5356.74121 0.241576
5357.65820 0.241373
5358.57422 0.24117
5359.49121 0.240966
5360.40820 0.240763
5361.32520 0.24056
5362.24219 0.240403
5363.16016 0.240257
5364.07812 0.240111
5364.99512 0.239965
5365.91309 0.239818
5366.83105 0.239672
5367.75000 0.239526
5368.66797 0.239379
5369.58594 0.239233
5370.50488 0.239087
5371.42383 0.23894
5372.34277 0.238814
5373.26221 0.238689
5374.18213 0.238564
5375.10107 0.238439
5376.02100 0.238315
5376.93994 0.23819
5377.85986 0.238065
5378.78076 0.23794
5379.70117 0.237815
5380.62109 0.23769
5381.54199 0.237568
5382.46191 0.237503
5383.38379 0.237437
5384.30518 0.237372
5385.22607 0.237307
5386.14697 0.237241
5387.06885 0.237176
5387.99023 0.237111
5388.91211 0.237045
5389.83398 0.23698
5390.75586 0.236914
5391.67920 0.236859
5392.60107 0.236843
5393.52393 0.236828
5394.44678 0.236813
5395.37012 0.236798
5396.29297 0.236783
5397.21582 0.236767
5398.14014 0.236752
5399.06299 0.236737
5399.98682 0.236722
5400.91113 0.236706
5401.83496 0.236676
5402.75879 0.236617
5403.68408 0.23656
5404.60791 0.236501
5405.53320 0.236443
5406.45801 0.236385
5407.38281 0.236327
5408.30811 0.236269
5409.23291 0.236211
5410.15918 0.236153
5411.08398 0.236095
5412.00977 0.236032
5412.93604 0.235964
5413.86182 0.235897
5414.78906 0.23583
5415.71484 0.235763
5416.64209 0.235696
5417.56787 0.235628
5418.49512 0.235561
5419.42188 0.235494
5420.35010 0.235427
5421.27686 0.235359
5422.20508 0.235252
5423.13184 0.235131
5424.06006 0.23501
5424.98779 0.234889
5425.91602 0.234768
5426.84521 0.234647
5427.77295 0.234526
5428.70215 0.234405
5429.62988 0.234284
5430.56006 0.234162
5431.48877 0.234041
5432.41797 0.233879
5433.34717 0.233717
5434.27686 0.233554
5435.20703 0.233392
5436.13721 0.233229
5437.06689 0.233066
5437.99707 0.232904
5438.92676 0.232741
5439.85791 0.232578
5440.78906 0.232415
5441.72021 0.23225
5442.65088 0.232077
5443.58203 0.231904
5444.51318 0.231731
5445.44482 0.231557
5446.37598 0.231384
5447.30811 0.231211
5448.24023 0.231037
5449.17188 0.230864
5450.10498 0.230691
5451.03711 0.230517
5451.97021 0.230354
5452.90283 0.230203
5453.83594 0.230052
5454.76904 0.229901
5455.70215 0.22975
5456.63623 0.229599
5457.56885 0.229447
5458.50293 0.229296
5459.43701 0.229145
5460.37109 0.228993
5461.30518 0.228842
5462.24023 0.228614
5463.17383 0.228365
5464.10889 0.228115
5465.04395 0.227865
5465.97900 0.227616
5466.91406 0.227366
5467.84912 0.227116
5468.78516 0.226866
5469.72119 0.226616
5470.65576 0.226366
5471.59180 0.226085
5472.52783 0.225432
5473.46484 0.224779
5474.40088 0.224126
5475.33789 0.223473
5476.27490 0.22282
5477.21191 0.222166
5478.14893 0.221513
5479.08594 0.220859
5480.02295 0.220206
5480.96094 0.219552
5481.89893 0.218498
5482.83691 0.216846
5483.77490 0.215194
5484.71289 0.213542
5485.65088 0.21189
5486.58984 0.210237
5487.52881 0.208585
5488.46777 0.206932
5489.40723 0.205279
5490.34619 0.203625
5491.28516 0.201972
5492.22510 0.199235
5493.16504 0.196128
5494.10400 0.193019
5495.04395 0.189911
5495.98486 0.186801
5496.92480 0.183693
5497.86523 0.180583
5498.80615 0.177472
5499.74707 0.174361
5500.68799 0.171251
5501.62891 0.168018
5502.56982 0.163763
5503.51221 0.159508
5504.45410 0.155251
5505.39502 0.150996
5506.33691 0.146739
5507.27881 0.14248
5508.22217 0.138221
5509.16406 0.133962
5510.10596 0.129704
5511.04883 0.125443
5511.99219 0.121213
5512.93506 0.117014
5513.87793 0.112814
5514.82178 0.108614
5515.76611 0.104412
5516.70898 0.100211
5517.65283 0.096009
5518.59717 0.091805
5519.54199 0.087602
5520.48584 0.083398
5521.43018 0.079194
5522.37500 0.076022
5523.31982 0.072977
5524.26514 0.069931
5525.20996 0.066885
5526.15479 0.063838
5527.10107 0.060791
5528.04590 0.057743
5528.99219 0.054695
5529.93799 0.051648
5530.88379 0.048598
5531.83105 0.045885
5532.77686 0.043917
5533.72412 0.041947
5534.66992 0.039978
5535.61816 0.038008
5536.56396 0.036039
5537.51221 0.034069
5538.45898 0.032097
5539.40723 0.030127
5540.35400 0.028157
5541.30322 0.026185
5542.25000 0.024871
5543.19922 0.023774
5544.14697 0.022677
5545.09619 0.02158
5546.04395 0.020483
5546.99414 0.019386
5547.94189 0.018289
5548.89209 0.017191
5549.84082 0.016093
5550.79102 0.014996
5551.74023 0.014005
5552.68994 0.013421
5553.64014 0.012838
5554.58984 0.012254
5555.54102 0.011669
5556.49121 0.011086
5557.44189 0.010501
5558.39307 0.009917
5559.34424 0.009333
5560.29492 0.008748
5561.24707 0.008164
5562.19824 0.007762
5563.14893 0.007442
5564.10205 0.007123
5565.05420 0.006804
5566.00586 0.006484
5566.95801 0.006165
5567.91113 0.005846
5568.86279 0.005526
5569.81592 0.005207
5570.76904 0.004887
5571.72217 0.004593
5572.67480 0.004416
5573.62891 0.004239
5574.58301 0.004062
5575.53613 0.003885
5576.49023 0.003708
5577.44385 0.003531
5578.39795 0.003354
5579.35303 0.003177
5580.30811 0.003
5581.26221 0.002823
5582.21680 0.002699
5583.17188 0.002596
5584.12695 0.002494
5585.08301 0.002392
5586.03906 0.00229
5586.99414 0.002188
5587.95020 0.002085
5588.90576 0.001983
5589.86182 0.001881
5590.81885 0.001779
5591.77490 0.001686
5592.73193 0.001626
5593.68896 0.001565
5594.64600 0.001504
5595.60303 0.001444
5596.56104 0.001383
5597.51807 0.001323
5598.47607 0.001262
5599.43408 0.001201
5600.39209 0.001141
5601.35010 0.00108
5602.30811 0.001039
5603.26709 0.001002
5604.22607 0.000966
5605.18506 0.00093
5606.14404 0.000893
5607.10303 0.000857
5608.06201 0.000821
5609.02100 0.000784
5609.98096 0.000748
5610.94092 0.000712
5611.90088 0.00068
5612.86084 0.000658
5613.82080 0.000637
5614.78223 0.000615
5615.74316 0.000593
5616.70410 0.000571
5617.66504 0.000549
5618.62500 0.000527
5619.58691 0.000505
5620.54785 0.000483
5621.50977 0.000461
5622.47217 0.000446
5623.43408 0.000431
5624.39600 0.000417
5625.35791 0.000402
6187.89355 0.0
