# %ECSV 0.9
# ---
# datatype:
# - {name: wavelength, unit: Angstrom, datatype: float32}
# - {name: response, datatype: float32}
# meta: !!omap
# - {band_name: F845M}
# - {group_name: WFC3_UVIS1}
wavelength response
7070.08203 0.0
7855.64697 0.000413
7856.99121 0.000431
7858.33496 0.000449
7859.68018 0.000467
7861.02393 0.000485
7862.37012 0.000504
7863.71484 0.000529
7865.06006 0.000555
7866.40576 0.000581
7867.75195 0.000606
7869.09814 0.000632
7870.44385 0.000657
7871.79102 0.000683
7873.13818 0.000714
7874.48486 0.000747
7875.83203 0.000781
7877.18018 0.000814
7878.52686 0.000847
7879.87500 0.00088
7881.22412 0.000914
7882.57178 0.000951
7883.91992 0.000998
7885.27002 0.001045
7886.61914 0.001093
7887.96777 0.00114
7889.31689 0.001187
7890.66699 0.001234
7892.01807 0.001281
7893.36816 0.001344
7894.71777 0.001409
7896.06885 0.001474
7897.41992 0.001539
7898.77100 0.001603
7900.12305 0.001668
7901.47412 0.001733
7902.82617 0.00181
7904.17822 0.001899
7905.53076 0.001988
7906.88281 0.002077
7908.23584 0.002166
7909.58887 0.002255
7910.94189 0.002344
7912.29590 0.002436
7913.64893 0.00256
7915.00293 0.002684
7916.35791 0.002808
7917.71191 0.002932
7919.06689 0.003056
7920.42188 0.003179
7921.77686 0.003303
7923.13184 0.003468
7924.48779 0.003649
7925.84424 0.003831
7927.20020 0.004012
7928.55615 0.004193
7929.91309 0.004374
7931.27002 0.004554
7932.62598 0.004758
7933.98389 0.005012
7935.34082 0.005265
7936.69922 0.005519
7938.05713 0.005771
7939.41504 0.006024
7940.77295 0.006276
7942.13184 0.006528
7943.49121 0.006864
7944.85010 0.007202
7946.20898 0.00754
7947.56885 0.007878
7948.92920 0.008215
7950.28906 0.008552
7951.64893 0.008889
7953.00879 0.009311
7954.37012 0.009787
7955.73096 0.010263
7957.09180 0.010738
7958.45410 0.011213
7959.81494 0.011687
7961.17676 0.012159
7962.53906 0.012678
7963.90088 0.01333
7965.26416 0.013982
7966.62695 0.014633
7967.99023 0.015283
7969.35303 0.015933
7970.71680 0.016582
7972.08105 0.017229
7973.44385 0.0181
7974.80908 0.018989
7976.17285 0.019878
7977.53809 0.020764
7978.90283 0.021651
7980.26807 0.022536
7981.63281 0.023423
7982.99902 0.02443
7984.36523 0.025519
7985.73096 0.026607
7987.09717 0.027695
7988.46387 0.028781
7989.83105 0.029866
7991.19678 0.030947
7992.56494 0.032124
7993.93213 0.033563
7995.29980 0.035
7996.66797 0.036435
7998.03613 0.037869
7999.40381 0.039301
8000.77295 0.040731
8002.14209 0.04216
8003.51123 0.043914
8004.87988 0.04568
8006.25000 0.047445
8007.62012 0.049207
8008.99023 0.050967
8010.35986 0.052724
8011.73096 0.054474
8013.10205 0.056373
8014.47314 0.058349
8015.84424 0.060322
8017.21484 0.062292
8018.58691 0.064259
8019.95898 0.066224
8021.33105 0.068186
8022.70410 0.07018
8024.07617 0.072232
8025.44922 0.074282
8026.82178 0.076328
8028.19482 0.078371
8029.56885 0.080411
8030.94287 0.082457
8032.31689 0.084506
8033.69092 0.086572
8035.06592 0.088636
8036.43994 0.090697
8037.81494 0.092756
8039.19092 0.094813
8040.56592 0.096862
8041.94189 0.098902
8043.31787 0.100781
8044.69385 0.102618
8046.06982 0.104454
8047.44678 0.106286
8048.82422 0.108116
8050.20117 0.109944
8051.57812 0.111768
8052.95605 0.113421
8054.33301 0.114925
8055.71191 0.116428
8057.08984 0.117929
8058.46924 0.119427
8059.84717 0.120923
8061.22705 0.122432
8062.60498 0.123828
8063.98486 0.124943
8065.36523 0.126056
8066.74512 0.127168
8068.12500 0.128279
8069.50488 0.129388
8070.88623 0.130485
8072.26709 0.131563
8073.64795 0.132313
8075.02881 0.133061
8076.41113 0.133807
8077.79199 0.134553
8079.17480 0.135298
8080.55713 0.136041
8081.93896 0.136783
8083.32178 0.137309
8084.70605 0.137779
8086.08887 0.138248
8087.47217 0.138716
8088.85596 0.139183
8090.24023 0.139653
8091.62402 0.140137
8093.00781 0.140497
8094.39307 0.140763
8095.77783 0.141029
8097.16309 0.141295
8098.54785 0.14156
8099.93408 0.141824
8101.31982 0.142071
8102.70605 0.142255
8104.09180 0.14232
8105.47900 0.142385
8106.86621 0.14245
8108.25293 0.142515
8109.64014 0.142579
8111.02783 0.142644
8112.41602 0.1427
8113.80322 0.142703
8115.19092 0.142706
8116.58008 0.142709
8117.96924 0.142712
8119.35791 0.142715
8120.74707 0.142727
8122.13623 0.142748
8123.52588 0.142705
8124.91602 0.142658
8126.30615 0.142611
8127.69580 0.142564
8129.08691 0.142516
8130.47803 0.142462
8131.86914 0.142397
8133.25977 0.142308
8134.65186 0.14221
8136.04297 0.142113
8137.43604 0.142016
8138.82812 0.141918
8140.22021 0.141821
8141.61279 0.141724
8143.00586 0.141617
8144.39893 0.141502
8145.79297 0.141388
8147.18701 0.141274
8148.58105 0.141159
8149.97510 0.141045
8151.36914 0.140948
8152.76416 0.14085
8154.15918 0.140748
8155.55420 0.140645
8156.94922 0.140543
8158.34521 0.140441
8159.74121 0.140339
8161.13721 0.140222
8162.53320 0.140109
8163.93018 0.140027
8165.32617 0.139945
8166.72314 0.139862
8168.12109 0.13978
8169.51807 0.139697
8170.91602 0.139614
8172.31396 0.139531
8173.71191 0.139436
8175.11084 0.139341
8176.50879 0.139245
8177.90820 0.13915
8179.30811 0.139055
8180.70703 0.138969
8182.10596 0.138892
8183.50586 0.138842
8184.90723 0.138796
8186.30713 0.13875
8187.70801 0.138704
8189.10791 0.138657
8190.50977 0.138604
8191.91113 0.13854
8193.31152 0.138493
8194.71484 0.138452
8196.11621 0.13841
8197.51855 0.138368
8198.92090 0.138327
8200.32422 0.138285
8201.72754 0.138246
8203.13086 0.138199
8204.53418 0.138148
8205.93848 0.138096
8207.34180 0.138044
8208.74609 0.137992
8210.15039 0.137942
8211.55469 0.137908
8212.95996 0.137898
8214.36523 0.137912
8215.77148 0.137926
8217.17676 0.13794
8218.58203 0.137954
8219.98828 0.137967
8221.39453 0.137963
8222.80176 0.137941
8224.20801 0.137892
8225.61523 0.137843
8227.02246 0.137793
8228.43066 0.137744
8229.83789 0.137695
8231.24609 0.137655
8232.65430 0.137629
8234.06348 0.137637
8235.47168 0.137644
8236.88086 0.137651
8238.29004 0.137658
8239.70020 0.137664
8241.10938 0.137685
8242.51953 0.137706
8243.92969 0.137709
8245.34082 0.137712
8246.75098 0.137715
8248.16211 0.137718
8249.57324 0.137721
8250.98438 0.137711
8252.39648 0.137696
8253.80859 0.137675
8255.22070 0.137655
8256.63281 0.137634
8258.04590 0.137614
8259.45898 0.137593
8260.87207 0.137572
8262.28516 0.137552
8263.69922 0.137561
8265.11230 0.13757
8266.52637 0.137578
8267.94141 0.137587
8269.35547 0.137595
8270.77148 0.137613
8272.18555 0.13764
8273.60059 0.137611
8275.01660 0.137579
8276.43262 0.137547
8277.84863 0.137515
8279.26465 0.137483
8280.68164 0.137442
8282.09766 0.137391
8283.51465 0.137358
8284.93262 0.137327
8286.34961 0.137296
8287.76758 0.137265
8289.18555 0.137233
8290.60352 0.137202
8292.02246 0.13717
8293.44141 0.137115
8294.86035 0.137055
8296.27930 0.136995
8297.69824 0.136935
8299.11816 0.136875
8300.53809 0.136814
8301.95801 0.136754
8303.37891 0.136688
8304.79980 0.136621
8306.22070 0.136554
8307.64160 0.136487
8309.06152 0.13642
8310.48438 0.136358
8311.90625 0.136309
8313.32812 0.136264
8314.75098 0.136219
8316.17383 0.136175
8317.59668 0.136131
8319.01953 0.136087
8320.44238 0.136037
8321.86621 0.135975
8323.29004 0.1359
8324.71387 0.13582
8326.13867 0.135739
8327.56348 0.135659
8328.98828 0.135579
8330.41309 0.135498
8331.83789 0.135418
8333.26367 0.135331
8334.68945 0.13524
8336.11523 0.13515
8337.54199 0.135059
8338.96875 0.134969
8340.39648 0.134883
8341.82227 0.134811
8343.24902 0.134734
8344.67676 0.134656
8346.10352 0.134577
8347.53223 0.134498
8348.96094 0.134419
8350.38965 0.134336
8351.81836 0.134239
8353.24707 0.134154
8354.67578 0.134074
8356.10547 0.133994
8357.53516 0.133915
8358.96484 0.133835
8360.39648 0.133755
8361.82617 0.133675
8363.25684 0.133574
8364.68652 0.133463
8366.11816 0.133351
8367.54980 0.13324
8368.98145 0.133128
8370.41309 0.133017
8371.84570 0.132905
8373.27832 0.1328
8374.71094 0.132696
8376.14355 0.132593
8377.57617 0.13249
8379.00977 0.132386
8380.44336 0.132288
8381.87695 0.132203
8383.31152 0.132109
8384.74609 0.132011
8386.18066 0.131913
8387.61523 0.131815
8389.04980 0.131717
8390.48535 0.131613
8391.92090 0.131498
8393.35742 0.131388
8394.79297 0.131282
8396.22852 0.131175
8397.66602 0.131068
8399.10254 0.130961
8400.54004 0.130859
8401.97656 0.130766
8403.41406 0.130664
8404.85254 0.13056
8406.29004 0.130456
8407.72852 0.130352
8409.16699 0.130248
8410.60547 0.130151
8412.04492 0.130064
8413.48438 0.12998
8414.92383 0.129896
8416.36328 0.129811
8417.80371 0.129727
8419.24316 0.129643
8420.68457 0.12955
8422.12500 0.129449
8423.56543 0.129333
8425.00684 0.129216
8426.44824 0.129099
8427.89062 0.128982
8429.33203 0.128865
8430.77441 0.128757
8432.21680 0.128657
8433.65918 0.128555
8435.10254 0.128453
8436.54590 0.128351
8437.98926 0.128248
8439.43262 0.128146
8440.87695 0.128044
8442.32129 0.127941
8443.76562 0.127847
8445.20996 0.127753
8446.65527 0.127659
8448.10059 0.127564
8449.54590 0.12747
8450.99121 0.127388
8452.43652 0.12731
8453.88379 0.127228
8455.33008 0.127145
8456.77637 0.127063
8458.22363 0.12698
8459.67090 0.126897
8461.11816 0.126801
8462.56543 0.126703
8464.01367 0.126613
8465.46191 0.126522
8466.91016 0.126431
8468.35840 0.126341
8469.80762 0.12625
8471.25684 0.12616
8472.70605 0.126072
8474.15527 0.125992
8475.60547 0.125912
8477.05566 0.125832
8478.50586 0.125751
8479.95703 0.125671
8481.40723 0.125591
8482.85840 0.125439
8484.31055 0.125161
8485.76172 0.124883
8487.21387 0.124605
8488.66602 0.124328
8490.11816 0.124052
8491.57031 0.123792
8493.02344 0.123619
8494.47656 0.123543
8495.92969 0.123467
8497.38379 0.12339
8498.83789 0.123313
8500.29199 0.123229
8501.74609 0.123114
8503.20020 0.122998
8504.65527 0.122882
8506.11035 0.122766
8507.56543 0.122649
8509.02148 0.122533
8510.47754 0.122417
8511.93359 0.122301
8513.38965 0.122194
8514.84668 0.122091
8516.30273 0.121987
8517.76074 0.121883
8519.21777 0.121779
8520.67480 0.121676
8522.13281 0.121572
8523.59082 0.121447
8525.04980 0.121318
8526.50781 0.12119
8527.96680 0.121061
8529.42578 0.120932
8530.88574 0.120814
8532.34473 0.120702
8533.80469 0.120629
8535.26465 0.120555
8536.72559 0.120482
8538.18555 0.120409
8539.64648 0.120335
8541.10742 0.120249
8542.56934 0.120156
8544.03027 0.120053
8545.49219 0.11995
8546.95410 0.119846
8548.41699 0.119743
8549.87988 0.119639
8551.34277 0.119536
8552.80566 0.119439
8554.26855 0.119356
8555.73242 0.119273
8557.19629 0.11919
8558.66016 0.119106
8560.12500 0.119023
8561.58887 0.11894
8563.05371 0.118858
8564.51953 0.118778
8565.98438 0.118698
8567.45020 0.118618
8568.91602 0.118538
8570.38184 0.118462
8571.84863 0.118398
8573.31543 0.118317
8574.78223 0.118226
8576.24902 0.118137
8577.71582 0.118046
8579.18359 0.117956
8580.65137 0.117859
8582.12012 0.117752
8583.58789 0.117663
8585.05664 0.117578
8586.52539 0.117493
8587.99512 0.117408
8589.46387 0.117322
8590.93359 0.117237
8592.40332 0.117153
8593.87402 0.1171
8595.34375 0.117048
8596.81445 0.116995
8598.28516 0.116943
8599.75684 0.11689
8601.22754 0.116837
8602.69922 0.11677
8604.17188 0.116658
8605.64355 0.116546
8607.11621 0.116433
8608.58887 0.116321
8610.06152 0.116209
8611.53418 0.116113
8613.00781 0.11602
8614.48145 0.115932
8615.95605 0.115844
8617.42969 0.115756
8618.90430 0.115668
8620.37891 0.115576
8621.85352 0.115471
8623.32910 0.115387
8624.80469 0.115315
8626.28027 0.115242
8627.75586 0.115169
8629.23242 0.115096
8630.70801 0.115039
8632.18457 0.115
8633.66211 0.114945
8635.13867 0.114886
8636.61621 0.114828
8638.09375 0.11477
8639.57227 0.114711
8641.05078 0.114653
8642.52832 0.114598
8644.00781 0.114578
8645.48633 0.114558
8646.96582 0.114537
8648.44531 0.114517
8649.92480 0.114496
8651.40430 0.114475
8652.88477 0.114442
8654.36523 0.114387
8655.84570 0.114332
8657.32715 0.114277
8658.80859 0.114221
8660.29004 0.114169
8661.77148 0.114129
8663.25391 0.114094
8664.73535 0.114063
8666.21777 0.114032
8667.70117 0.114
8669.18359 0.113969
8670.66699 0.11393
8672.15039 0.113882
8673.63477 0.113865
8675.11816 0.113853
8676.60254 0.113842
8678.08691 0.11383
8679.57227 0.113818
8681.05664 0.113806
8682.54199 0.113791
8684.02832 0.113745
8685.51367 0.113699
8687.00000 0.113653
8688.48633 0.113607
8689.97266 0.113561
8691.45898 0.113515
8692.94629 0.113475
8694.43359 0.113445
8695.92090 0.113415
8697.40918 0.113384
8698.89746 0.113354
8700.38574 0.113323
8701.87402 0.113292
8703.36328 0.113242
8704.85254 0.113181
8706.34180 0.113119
8707.83105 0.113058
8709.32129 0.112996
8710.81055 0.112943
8712.30176 0.112897
8713.79199 0.112855
8715.28320 0.112812
8716.77441 0.112769
8718.26562 0.112726
8719.75684 0.112683
8721.24902 0.112626
8722.74121 0.112566
8724.23340 0.112505
8725.72656 0.112443
8727.21875 0.112382
8728.71191 0.112321
8730.20605 0.112259
8731.69922 0.112197
8733.19336 0.112124
8734.68848 0.112041
8736.18164 0.111957
8737.67676 0.111874
8739.17188 0.11179
8740.66699 0.111706
8742.16211 0.111623
8743.65820 0.111524
8745.15430 0.111422
8746.65039 0.11132
8748.14648 0.111218
8749.64355 0.111116
8751.14062 0.111014
8752.63770 0.110913
8754.13574 0.110818
8755.63281 0.110722
8757.13086 0.110626
8758.62988 0.11053
8760.12793 0.110436
8761.62695 0.110355
8763.12598 0.110269
8764.62500 0.110176
8766.12500 0.110083
8767.62500 0.10999
8769.12500 0.109897
8770.62500 0.109797
8772.12598 0.109688
8773.62695 0.109549
8775.12793 0.109403
8776.62891 0.109256
8778.13086 0.10911
8779.63281 0.108963
8781.13477 0.108817
8782.63770 0.108676
8784.13965 0.108571
8785.64258 0.108465
8787.14648 0.10836
8788.64941 0.108254
8790.15332 0.108148
8791.65723 0.108042
8793.16113 0.107922
8794.66602 0.107787
8796.17090 0.107653
8797.67578 0.107518
8799.18066 0.107383
8800.68652 0.107239
8802.19238 0.107083
8803.69824 0.106968
8805.20410 0.10686
8806.71094 0.106752
8808.21777 0.106644
8809.72461 0.106536
8811.23145 0.10644
8812.73926 0.106344
8814.24707 0.106235
8815.75488 0.106126
8817.26367 0.106017
8818.77246 0.105908
8820.28125 0.105796
8821.79004 0.105671
8823.29980 0.105564
8824.80957 0.10547
8826.31934 0.105376
8827.82910 0.105282
8829.33984 0.105188
8830.85059 0.105108
8832.36133 0.10504
8833.87207 0.104994
8835.38379 0.104949
8836.89648 0.104904
8838.40723 0.104859
8839.91992 0.104814
8841.43164 0.104768
8842.94434 0.104713
8844.45801 0.104639
8845.97070 0.104565
8847.48438 0.104492
8848.99805 0.104418
8850.51172 0.104344
8852.02637 0.104269
8853.54102 0.104106
8855.05566 0.103912
8856.57129 0.103717
8858.08594 0.103522
8859.60156 0.103327
8861.11719 0.103132
8862.63379 0.102903
8864.15039 0.10245
8865.66699 0.101999
8867.18359 0.101547
8868.70020 0.101097
8870.21777 0.100648
8871.73535 0.100213
8873.25391 0.099507
8874.77148 0.098572
8876.29004 0.097637
8877.80859 0.096703
8879.32812 0.09577
8880.84668 0.09483
8882.36621 0.093885
8883.88574 0.092493
8885.40625 0.091079
8886.92676 0.089668
8888.44727 0.088258
8889.96777 0.086851
8891.48828 0.085445
8893.00977 0.083802
8894.53125 0.08176
8896.05371 0.079721
8897.57520 0.077686
8899.09766 0.075652
8900.62012 0.073622
8902.14355 0.071594
8903.66602 0.069298
8905.18945 0.066937
8906.71289 0.06458
8908.23730 0.062225
8909.76172 0.059875
8911.28613 0.057527
8912.81055 0.055233
8914.33496 0.053099
8915.86035 0.050967
8917.38574 0.048838
8918.91211 0.046712
8920.43848 0.04459
8921.96387 0.042471
8923.49023 0.04053
8925.01758 0.038672
8926.54395 0.036819
8928.07129 0.034967
8929.59863 0.033119
8931.12695 0.031272
8932.65527 0.029483
8934.18359 0.028047
8935.71191 0.026613
8937.24023 0.025182
8938.76953 0.023753
8940.29883 0.022326
8941.82910 0.020904
8943.35840 0.019734
8944.88867 0.018737
8946.41895 0.017742
8947.95020 0.016748
8949.48047 0.015756
8951.01172 0.014763
8952.54395 0.013788
8954.07520 0.013103
8955.60742 0.012419
8957.13965 0.011736
8958.67188 0.011054
8960.20508 0.010373
8961.73828 0.009694
8963.27148 0.009125
8964.80469 0.008656
8966.33887 0.008187
8967.87305 0.007719
8969.40723 0.007252
8970.94141 0.006786
8972.47656 0.006322
8974.01172 0.006019
8975.54688 0.005716
8977.08301 0.005414
8978.61816 0.005112
8980.15527 0.004811
8981.69141 0.00451
8983.22754 0.004258
8984.76465 0.004055
8986.30176 0.003852
8987.83984 0.003649
8989.37793 0.003446
8990.91602 0.003244
8992.45410 0.003043
8993.99219 0.002909
8995.53125 0.002776
8997.07031 0.002643
8998.60938 0.002511
9000.14941 0.002379
9001.68945 0.002246
9003.22852 0.002135
9004.76953 0.002046
9006.31055 0.001958
9007.85156 0.001869
9009.39258 0.001781
9010.93359 0.001693
9012.47559 0.001606
9014.01758 0.001531
9015.55957 0.001456
9017.10254 0.001382
9018.64648 0.001307
9020.18848 0.001233
9021.73145 0.001159
9023.27539 0.001105
9024.81934 0.00107
9026.36328 0.001034
9027.90723 0.000999
9029.45215 0.000964
9030.99707 0.000929
9032.54199 0.000895
9034.08789 0.000872
9035.63281 0.000849
9037.17871 0.000826
9038.72559 0.000803
9040.27148 0.00078
9041.81836 0.000757
9043.36523 0.000729
9044.91309 0.000696
9046.45996 0.000663
9048.00781 0.00063
9049.55664 0.000597
9051.10352 0.000565
9052.65332 0.000535
9054.20215 0.000527
9055.75098 0.000519
9057.30078 0.000511
9058.85059 0.000503
9060.40039 0.000494
9061.95020 0.000486
9063.50098 0.000469
9065.05176 0.000448
9066.60254 0.000426
9068.15332 0.000404
9974.96875 0.0
