# %ECSV 0.9
# ---
# datatype:
# - {name: wavelength, unit: Angstrom, datatype: float32}
# - {name: response, datatype: float32}
# meta: !!omap
# - {band_name: F600LP}
# - {group_name: WFC3_UVIS1}
wavelength response
5293.73389 0.0
5881.92676 0.000405
5882.93311 0.000427
5883.93896 0.000448
5884.94580 0.00047
5885.95312 0.000491
5886.95898 0.000512
5887.96680 0.000534
5888.97412 0.000555
5889.98096 0.000577
5890.98877 0.000598
5891.99707 0.000625
5893.00391 0.000662
5894.01318 0.0007
5895.02100 0.000737
5896.02881 0.000774
5897.03809 0.000811
5898.04590 0.000848
5899.05518 0.000885
5900.06396 0.000923
5901.07422 0.00096
5902.08301 0.001005
5903.09277 0.001061
5904.10303 0.001116
5905.11279 0.001172
5906.12305 0.001228
5907.13281 0.001283
5908.14404 0.001339
5909.15381 0.001394
5910.16504 0.00145
5911.17578 0.001506
5912.18701 0.001577
5913.19922 0.00166
5914.20996 0.001743
5915.22217 0.001827
5916.23389 0.00191
5917.24609 0.001993
5918.25781 0.002077
5919.27100 0.00216
5920.28320 0.002244
5921.29492 0.002327
5922.30908 0.002441
5923.32178 0.002571
5924.33496 0.002701
5925.34814 0.002831
5926.36182 0.00296
5927.37500 0.00309
5928.39014 0.00322
5929.40381 0.00335
5930.41797 0.00348
5931.43311 0.00361
5932.44678 0.003787
5933.46191 0.003977
5934.47705 0.004166
5935.49219 0.004356
5936.50684 0.004546
5937.52295 0.004735
5938.53906 0.004925
5939.55518 0.005115
5940.56982 0.005304
5941.58691 0.005494
5942.60303 0.005758
5943.62012 0.006025
5944.63623 0.006293
5945.65283 0.006561
5946.66992 0.006829
5947.68701 0.007097
5948.70508 0.007365
5949.72314 0.007633
5950.74023 0.007901
5951.75781 0.00818
5952.77588 0.008551
5953.79492 0.008921
5954.81299 0.009292
5955.83203 0.009662
5956.85107 0.010033
5957.87012 0.010404
5958.88916 0.010774
5959.90820 0.011145
5960.92822 0.011516
5961.94678 0.011924
5962.96680 0.012423
5963.98682 0.012922
5965.00684 0.013421
5966.02783 0.01392
5967.04785 0.014419
5968.06885 0.014918
5969.08984 0.015418
5970.11084 0.015917
5971.13184 0.016415
5972.15381 0.016987
5973.17480 0.017636
5974.19678 0.018285
5975.21924 0.018934
5976.24121 0.019583
5977.26416 0.020231
5978.28613 0.02088
5979.30908 0.021529
5980.33203 0.022178
5981.35400 0.022829
5982.37793 0.023585
5983.40088 0.024384
5984.42480 0.025184
5985.44824 0.025983
5986.47217 0.026783
5987.49707 0.027583
5988.52100 0.028382
5989.54492 0.029182
5990.56982 0.029983
5991.59424 0.030783
5992.61914 0.031714
5993.64502 0.032655
5994.66992 0.033596
5995.69482 0.034537
5996.72119 0.035478
5997.74707 0.036419
5998.77197 0.03736
5999.79883 0.038302
6000.82520 0.039246
6001.85205 0.040223
6002.87793 0.041344
6003.90479 0.042466
6004.93213 0.043587
6005.95898 0.044709
6006.98682 0.045832
6008.01416 0.046954
6009.04199 0.048077
6010.06982 0.0492
6011.09814 0.050324
6012.12598 0.05152
6013.15479 0.052805
6014.18408 0.054091
6015.21191 0.055377
6016.24121 0.056663
6017.27100 0.05795
6018.29980 0.059237
6019.32910 0.060524
6020.35889 0.061812
6021.38916 0.063099
6022.41895 0.06445
6023.44922 0.065823
6024.47900 0.067197
6025.50977 0.068571
6026.54102 0.069945
6027.57178 0.07132
6028.60303 0.072695
6029.63379 0.07407
6030.66602 0.075442
6031.69678 0.076812
6032.72900 0.078255
6033.76123 0.079698
6034.79297 0.081141
6035.82520 0.082584
6036.85791 0.084027
6037.89111 0.085471
6038.92285 0.086914
6039.95703 0.088358
6040.99023 0.089809
6042.02295 0.09129
6043.05713 0.092828
6044.08984 0.094367
6045.12402 0.095906
6046.15820 0.097445
6047.19189 0.098985
6048.22705 0.100526
6049.26221 0.102066
6050.29590 0.103607
6051.33203 0.105149
6052.36719 0.106692
6053.40186 0.108237
6054.43799 0.109782
6055.47314 0.111328
6056.50879 0.112873
6057.54492 0.11442
6058.58105 0.115966
6059.61816 0.117514
6060.65381 0.119061
6061.69092 0.120608
6062.72803 0.122119
6063.76514 0.123631
6064.80176 0.125144
6065.83887 0.126656
6066.87695 0.12817
6067.91504 0.129683
6068.95312 0.131197
6069.99121 0.132711
6071.02979 0.134226
6072.06787 0.135725
6073.10693 0.1372
6074.14600 0.138674
6075.18506 0.140149
6076.22412 0.141625
6077.26318 0.143101
6078.30322 0.144577
6079.34277 0.146054
6080.38281 0.147531
6081.42285 0.149008
6082.46289 0.150451
6083.50293 0.151883
6084.54395 0.153315
6085.58496 0.154747
6086.62598 0.15618
6087.66699 0.157613
6088.70801 0.159046
6089.75000 0.16048
6090.79199 0.161904
6091.83398 0.163311
6092.87598 0.16464
6093.91797 0.165968
6094.95996 0.167297
6096.00293 0.168627
6097.04590 0.169956
6098.08887 0.171285
6099.13184 0.172615
6100.17480 0.173947
6101.21924 0.175292
6102.26318 0.17658
6103.30713 0.177822
6104.35107 0.179064
6105.39502 0.180306
6106.43896 0.181548
6107.48389 0.182791
6108.52783 0.184034
6109.57324 0.185277
6110.61914 0.186521
6111.66406 0.187765
6112.70898 0.188925
6113.75488 0.190084
6114.80078 0.191243
6115.84717 0.192401
6116.89307 0.193561
6117.93896 0.19472
6118.98584 0.19588
6120.03320 0.197041
6121.08008 0.198201
6122.12598 0.199323
6123.17383 0.200389
6124.22119 0.201456
6125.26904 0.202524
6126.31689 0.203592
6127.36523 0.204659
6128.41309 0.205727
6129.46094 0.206796
6130.50977 0.207864
6131.55908 0.208933
6132.60693 0.209909
6133.65576 0.210872
6134.70605 0.211835
6135.75488 0.212798
6136.80518 0.213761
6137.85400 0.214725
6138.90381 0.215689
6139.95508 0.216653
6141.00488 0.217617
6142.05518 0.218547
6143.10596 0.219411
6144.15723 0.220275
6145.20801 0.221139
6146.25879 0.222004
6147.31104 0.222868
6148.36182 0.223733
6149.41406 0.224598
6150.46582 0.225454
6151.51807 0.2263
6152.56982 0.227078
6153.62305 0.227843
6154.67480 0.228608
6155.72803 0.229373
6156.78076 0.230138
6157.83398 0.230903
6158.88818 0.231668
6159.94092 0.232433
6160.99512 0.233218
6162.04883 0.233977
6163.10303 0.234679
6164.15723 0.235382
6165.21191 0.236085
6166.26611 0.236788
6167.32080 0.237491
6168.37598 0.238195
6169.43115 0.238898
6170.48682 0.239602
6171.54199 0.240306
6172.59814 0.240944
6173.65381 0.24157
6174.70996 0.242196
6175.76611 0.242822
6176.82324 0.243449
6177.87891 0.244076
6178.93604 0.244702
6179.99316 0.245329
6181.04980 0.245956
6182.10693 0.246557
6183.16504 0.247114
6184.22314 0.247671
6185.28076 0.248228
6186.33887 0.248786
6187.39697 0.249343
6188.45605 0.249901
6189.51416 0.250458
6190.57324 0.251016
6191.63184 0.251574
6192.69092 0.252085
6193.75000 0.252591
6194.81006 0.253098
6195.87012 0.253605
6196.92920 0.254112
6197.98877 0.254619
6199.04980 0.255126
6200.10986 0.255631
6201.16992 0.256115
6202.23096 0.256573
6203.29199 0.257002
6204.35400 0.257431
6205.41504 0.25786
6206.47705 0.258289
6207.53809 0.258718
6208.60010 0.259147
6209.66211 0.259577
6210.72412 0.260022
6211.78711 0.260471
6212.84912 0.260866
6213.91211 0.261262
6214.97510 0.261657
6216.03809 0.262053
6217.10205 0.262449
6218.16504 0.262845
6219.22900 0.263241
6220.29199 0.263637
6221.35596 0.264033
6222.42090 0.264394
6223.48486 0.264737
6224.54980 0.26508
6225.61523 0.265424
6226.68018 0.265767
6227.74512 0.26611
6228.81006 0.266454
6229.87500 0.266797
6230.94092 0.267142
6232.00684 0.267478
6233.07324 0.267784
6234.14014 0.268091
6235.20605 0.268398
6236.27197 0.268705
6237.33887 0.269011
6238.40576 0.269318
6239.47412 0.269626
6240.54102 0.26992
6241.60791 0.270203
6242.67578 0.270476
6243.74414 0.270749
6244.81201 0.271022
6245.87988 0.271295
6246.94922 0.271568
6248.01709 0.271841
6249.08594 0.272114
6250.15479 0.27239
6251.22412 0.272688
6252.29297 0.272954
6253.36279 0.273191
6254.43311 0.273428
6255.50195 0.273665
6256.57324 0.273902
6257.64307 0.27414
6258.71289 0.274377
6259.78418 0.274614
6260.85498 0.274852
6261.92578 0.275087
6262.99707 0.27531
6264.06787 0.275534
6265.14014 0.275757
6266.21191 0.275981
6267.28418 0.276205
6268.35498 0.276429
6269.42822 0.276653
6270.50000 0.276876
6271.57324 0.2771
6272.64600 0.277302
6273.71924 0.277499
6274.79199 0.277697
6275.86621 0.277895
6276.93896 0.278092
6278.01318 0.27829
6279.08691 0.278488
6280.16113 0.278686
6281.23486 0.278884
6282.31006 0.279072
6283.38379 0.279254
6284.45898 0.279435
6285.53418 0.279616
6286.60889 0.279798
6287.68506 0.279979
6288.75977 0.280161
6289.83594 0.280342
6290.91211 0.280502
6291.98779 0.280653
6293.06396 0.280791
6294.14111 0.280928
6295.21777 0.281066
6296.29395 0.281203
6297.37207 0.28134
6298.44922 0.281478
6299.52588 0.281615
6300.60400 0.281767
6301.68213 0.281931
6302.75977 0.282077
6303.83789 0.282221
6304.91602 0.282366
6305.99512 0.282511
6307.07324 0.282656
6308.15186 0.282801
6309.23096 0.282946
6310.31104 0.283091
6311.39014 0.283236
6312.47021 0.283367
6313.54980 0.28349
6314.62988 0.283614
6315.70996 0.283738
6316.79004 0.283862
6317.87109 0.283986
6318.95215 0.28411
6320.03223 0.284234
6321.11377 0.284358
6322.19482 0.284475
6323.27588 0.284579
6324.35791 0.284685
6325.43994 0.284789
6326.52197 0.284895
6327.60400 0.285
6328.68701 0.285105
6329.76904 0.28521
6330.85205 0.285294
6331.93506 0.285374
6333.01807 0.285457
6334.10205 0.285541
6335.18506 0.285625
6336.26904 0.285709
6337.35303 0.285793
6338.43701 0.285877
6339.52100 0.285961
6340.60498 0.286059
6341.68994 0.286169
6342.77490 0.286258
6343.85986 0.286345
6344.94482 0.286432
6346.02979 0.28652
6347.11621 0.286607
6348.20215 0.286695
6349.28809 0.286782
6350.37402 0.286869
6351.45996 0.286956
6352.54590 0.287041
6353.63281 0.287125
6354.72021 0.287209
6355.80713 0.287293
6356.89502 0.287376
6357.98193 0.28746
6359.06885 0.287544
6360.15723 0.287628
6361.24512 0.287712
6362.33301 0.28779
6363.42188 0.287864
6364.50977 0.287937
6365.59912 0.288011
6366.68799 0.288084
6367.77686 0.288157
6368.86621 0.288231
6369.95605 0.288304
6371.04492 0.288352
6372.13477 0.288401
6373.22510 0.288453
6374.31494 0.288506
6375.40576 0.288559
6376.49707 0.288612
6377.58691 0.288665
6378.67822 0.288718
6379.77002 0.288771
6380.86084 0.288845
6381.95215 0.28892
6383.04395 0.288974
6384.13623 0.289029
6385.22803 0.289083
6386.31982 0.289137
6387.41309 0.289191
6388.50488 0.289245
6389.59814 0.289299
6390.69092 0.289353
6391.78418 0.289408
6392.87793 0.289472
6393.97119 0.289536
6395.06494 0.2896
6396.15918 0.289664
6397.25293 0.289728
6398.34814 0.289792
6399.44189 0.289856
6400.53711 0.28992
6401.63184 0.289984
6402.72705 0.290031
6403.82178 0.290074
6404.91699 0.290118
6406.01318 0.290162
6407.10889 0.290205
6408.20508 0.290249
6409.30078 0.290293
6410.39697 0.290326
6411.49414 0.290343
6412.59082 0.290361
6413.68799 0.290381
6414.78516 0.2904
6415.88184 0.29042
6416.97998 0.290439
6418.07812 0.290459
6419.17480 0.290478
6420.27295 0.290505
6421.37207 0.290552
6422.47021 0.290597
6423.56885 0.290642
6424.66699 0.290687
6425.76709 0.290731
6426.86621 0.290776
6427.96484 0.290821
6429.06494 0.290866
6430.16504 0.29091
6431.26514 0.290949
6432.36523 0.290982
6433.46484 0.291009
6434.56494 0.291037
6435.66602 0.291064
6436.76709 0.291092
6437.86816 0.291119
6438.97021 0.291147
6440.07080 0.291174
6441.17285 0.291202
6442.27393 0.291229
6443.37598 0.291256
6444.47900 0.291283
6445.58105 0.291311
6446.68408 0.291338
6447.78711 0.291365
6448.89014 0.291392
6449.99316 0.291419
6451.09619 0.291419
6452.20020 0.291421
6453.30322 0.291429
6454.40723 0.291437
6455.51123 0.291444
6456.61621 0.291452
6457.72021 0.291459
6458.82520 0.291467
6459.93018 0.291474
6461.03516 0.291507
6462.14014 0.291537
6463.24512 0.291557
6464.35107 0.291576
6465.45703 0.291596
6466.56299 0.291616
6467.66895 0.291635
6468.77490 0.291655
6469.88184 0.291674
6470.98877 0.291694
6472.09619 0.291713
6473.20312 0.291732
6474.31006 0.291752
6475.41699 0.291771
6476.52490 0.291791
6477.63281 0.29181
6478.74121 0.291829
6479.85010 0.291849
6480.95801 0.291868
6482.06592 0.291884
6483.17480 0.291892
6484.28418 0.291899
6485.39404 0.291906
6486.50293 0.291914
6487.61279 0.291921
6488.72217 0.291929
6489.83301 0.291936
6490.94189 0.29192
6492.05322 0.291905
6493.16406 0.291911
6494.27393 0.291917
6495.38477 0.291923
6496.49609 0.291929
6497.60693 0.291935
6498.71924 0.291941
6499.83105 0.291947
6500.94189 0.291932
6502.05518 0.291904
6503.16699 0.29185
6504.27881 0.291795
6505.39209 0.291741
6506.50488 0.291686
6507.61816 0.291631
6508.73096 0.291577
6509.84424 0.291522
6510.95801 0.291467
6512.07178 0.291416
6513.18604 0.291378
6514.29980 0.29134
6515.41406 0.291301
6516.52881 0.291263
6517.64404 0.291224
6518.75781 0.291186
6519.87402 0.291148
6520.98877 0.291084
6522.10400 0.291016
6523.22021 0.290944
6524.33594 0.290872
6525.45215 0.290799
6526.56787 0.290727
6527.68506 0.290655
6528.80078 0.290583
6529.91797 0.29051
6531.03516 0.290463
6532.15186 0.29042
6533.27002 0.290379
6534.38721 0.290338
6535.50488 0.290297
6536.62305 0.290256
6537.74121 0.290215
6538.85986 0.290174
6539.97803 0.290133
6541.09717 0.290091
6542.21582 0.290048
6543.33496 0.29
6544.45410 0.289953
6545.57422 0.289906
6546.69287 0.289858
6547.81299 0.289811
6548.93408 0.289764
6550.05420 0.289716
6551.17383 0.289669
6552.29492 0.28962
6553.41602 0.289571
6554.53711 0.289522
6555.65820 0.289473
6556.77881 0.289424
6557.90088 0.289375
6559.02295 0.289326
6560.14502 0.289273
6561.26709 0.289196
6562.39014 0.289122
6563.51221 0.289052
6564.63477 0.288982
6565.75781 0.288912
6566.88086 0.288841
6568.00391 0.288771
6569.12793 0.288701
6570.25098 0.288637
6571.37500 0.288594
6572.50000 0.288542
6573.62402 0.288484
6574.74902 0.288425
6575.87305 0.288367
6576.99805 0.288308
6578.12305 0.28825
6579.24805 0.288191
6580.37402 0.288133
6581.50000 0.288074
6582.62500 0.288018
6583.75098 0.287965
6584.87695 0.287911
6586.00391 0.287857
6587.12988 0.287803
6588.25684 0.287749
6589.38379 0.287695
6590.51221 0.287628
6591.63916 0.287546
6592.76709 0.287472
6593.89404 0.2874
6595.02197 0.287327
6596.14990 0.287255
6597.27881 0.287182
6598.40723 0.28711
6599.53613 0.287037
6600.66504 0.286981
6601.79395 0.286936
6602.92285 0.286882
6604.05322 0.286829
6605.18311 0.286775
6606.31299 0.286722
6607.44189 0.286668
6608.57324 0.286614
6609.70312 0.286561
6610.83398 0.286507
6611.96484 0.286454
6613.09619 0.28641
6614.22705 0.286366
6615.35791 0.286322
6616.49023 0.286278
6617.62207 0.286235
6618.75391 0.286191
6619.88623 0.286147
6621.01904 0.286103
6622.15088 0.286052
6623.28418 0.285986
6624.41699 0.28592
6625.54980 0.285854
6626.68408 0.285788
6627.81689 0.285722
6628.95117 0.285656
6630.08496 0.285586
6631.21924 0.28548
6632.35400 0.285378
6633.48779 0.285281
6634.62305 0.285185
6635.75781 0.285088
6636.89307 0.284992
6638.02783 0.284895
6639.16406 0.284799
6640.29883 0.28471
6641.43506 0.284641
6642.57080 0.28457
6643.70801 0.284497
6644.84424 0.284425
6645.98096 0.284352
6647.11816 0.28428
6648.25488 0.284207
6649.39209 0.284134
6650.52881 0.284062
6651.66699 0.283989
6652.80518 0.283927
6653.94287 0.283867
6655.08105 0.283808
6656.22021 0.283748
6657.35791 0.283688
6658.49707 0.283628
6659.63623 0.283569
6660.77490 0.28349
6661.91504 0.283401
6663.05420 0.283305
6664.19385 0.283209
6665.33398 0.283112
6666.47510 0.283016
6667.61523 0.28292
6668.75488 0.282824
6669.89600 0.282727
6671.03711 0.282656
6672.17822 0.282583
6673.31885 0.282499
6674.46094 0.282414
6675.60303 0.28233
6676.74512 0.282246
6677.88721 0.282162
6679.02881 0.282078
6680.17188 0.281994
6681.31396 0.281909
6682.45801 0.281835
6683.60107 0.281769
6684.74414 0.281703
6685.88721 0.281638
6687.03076 0.281572
6688.17480 0.281506
6689.31885 0.28144
6690.46289 0.281363
6691.60791 0.28127
6692.75195 0.281161
6693.89697 0.281049
6695.04199 0.280936
6696.18799 0.280823
6697.33301 0.280711
6698.47900 0.280598
6699.62500 0.280485
6700.77100 0.280391
6701.91699 0.280309
6703.06299 0.28026
6704.20996 0.280211
6705.35693 0.280162
6706.50391 0.280114
6707.65088 0.280065
6708.79883 0.280016
6709.94580 0.279967
6711.09424 0.279919
6712.24219 0.279859
6713.39014 0.279776
6714.53906 0.279694
6715.68701 0.279612
6716.83594 0.279529
6717.98486 0.279447
6719.13379 0.279365
6720.28418 0.279275
6721.43311 0.279165
6722.58301 0.279056
6723.73291 0.278947
6724.88281 0.278838
6726.03418 0.278729
6727.18408 0.27862
6728.33496 0.278511
6729.48584 0.278402
6730.63721 0.278308
6731.78906 0.278227
6732.93994 0.278164
6734.09180 0.278102
6735.24414 0.27804
6736.39600 0.277978
6737.54785 0.277916
6738.70117 0.277854
6739.85400 0.277792
6741.00586 0.27773
6742.16016 0.277665
6743.31299 0.277595
6744.46582 0.277524
6745.62012 0.277454
6746.77393 0.277383
6747.92822 0.277313
6749.08301 0.277243
6750.23682 0.277166
6751.39209 0.277068
6752.54590 0.27697
6753.70215 0.276872
6754.85693 0.276775
6756.01221 0.276677
6757.16797 0.276579
6758.32422 0.276481
6759.47998 0.276384
6760.63623 0.276301
6761.79297 0.276231
6762.95020 0.276158
6764.10596 0.276084
6765.26416 0.27601
6766.42090 0.275936
6767.57812 0.275863
6768.73584 0.275789
6769.89404 0.275716
6771.05176 0.275642
6772.20996 0.275568
6773.36914 0.275494
6774.52686 0.27542
6775.68604 0.275346
6776.84521 0.275272
6778.00391 0.275199
6779.16406 0.275125
6780.32422 0.275043
6781.48291 0.274942
6782.64404 0.274847
6783.80420 0.274756
6784.96387 0.274665
6786.12500 0.274574
6787.28613 0.274482
6788.44678 0.274391
6789.60791 0.2743
6790.77002 0.274227
6791.93115 0.274163
6793.09277 0.27408
6794.25488 0.273997
6795.41699 0.273914
6796.58008 0.273832
6797.74219 0.273749
6798.90479 0.273666
6800.06787 0.273583
6801.23096 0.273501
6802.39502 0.273424
6803.55908 0.273355
6804.72217 0.273286
6805.88623 0.273217
6807.05078 0.273148
6808.21484 0.273079
6809.37891 0.273011
6810.54395 0.272929
6811.70898 0.272832
6812.87500 0.272729
6814.04004 0.272623
6815.20605 0.272518
6816.37207 0.272413
6817.53809 0.272308
6818.70410 0.272203
6819.87012 0.272098
6821.03711 0.272017
6822.20410 0.27194
6823.37109 0.271866
6824.53809 0.271791
6825.70605 0.271717
6826.87305 0.271643
6828.04102 0.271568
6829.20898 0.271494
6830.37695 0.271422
6831.54492 0.271355
6832.71387 0.271281
6833.88281 0.271205
6835.05176 0.271129
6836.22119 0.271053
6837.39111 0.270977
6838.56006 0.270901
6839.72998 0.270825
6840.89990 0.270728
6842.06982 0.270626
6843.24121 0.270535
6844.41113 0.270443
6845.58203 0.270352
6846.75293 0.27026
6847.92383 0.270168
6849.09619 0.270077
6850.26807 0.269991
6851.43896 0.269927
6852.61084 0.269871
6853.78320 0.269821
6854.95605 0.26977
6856.12793 0.269719
6857.30078 0.269669
6858.47412 0.269618
6859.64697 0.269567
6860.82080 0.269497
6861.99512 0.269418
6863.16797 0.269323
6864.34180 0.269228
6865.51709 0.269134
6866.69092 0.269039
6867.86621 0.268944
6869.04102 0.26885
6870.21484 0.26876
6871.39111 0.268693
6872.56592 0.268623
6873.74219 0.268551
6874.91699 0.26848
6876.09424 0.268408
6877.27002 0.268337
6878.44580 0.268266
6879.62305 0.268194
6880.79980 0.268123
6881.97705 0.268052
6883.15381 0.267994
6884.33203 0.267936
6885.50879 0.267877
6886.68701 0.267819
6887.86523 0.267761
6889.04297 0.267703
6890.22217 0.267639
6891.39990 0.267554
6892.58008 0.267455
6893.75781 0.267346
6894.93799 0.267237
6896.11719 0.267128
6897.29688 0.267019
6898.47705 0.26691
6899.65723 0.266801
6900.83691 0.266711
6902.01807 0.266631
6903.19824 0.266565
6904.37891 0.266499
6905.56006 0.266433
6906.74121 0.266368
6907.92285 0.266302
6909.10400 0.266236
6910.28711 0.26617
6911.46924 0.266104
6912.65088 0.266042
6913.83301 0.265982
6915.01611 0.265922
6916.19922 0.265862
6917.38184 0.265802
6918.56494 0.265742
6919.74902 0.265682
6920.93311 0.265601
6922.11719 0.265512
6923.30078 0.265419
6924.48486 0.265325
6925.66895 0.265231
6926.85400 0.265137
6928.03906 0.265044
6929.22412 0.26495
6930.41016 0.264866
6931.59521 0.264799
6932.78076 0.264735
6933.96680 0.264672
6935.15283 0.264609
6936.33887 0.264547
6937.52588 0.264484
6938.71191 0.264421
6939.89893 0.264358
6941.08594 0.26427
6942.27393 0.264182
6943.46094 0.264099
6944.64893 0.264016
6945.83691 0.263934
6947.02490 0.263851
6948.21387 0.263768
6949.40186 0.263686
6950.59082 0.263616
6951.77979 0.263561
6952.96924 0.263484
6954.15918 0.263405
6955.34814 0.263325
6956.53809 0.263246
6957.72803 0.263167
6958.91797 0.263087
6960.10889 0.263008
6961.29883 0.262929
6962.49023 0.262861
6963.68115 0.262806
6964.87305 0.26275
6966.06396 0.262695
6967.25488 0.26264
6968.44678 0.262584
6969.63916 0.262529
6970.83203 0.262455
6972.02393 0.262372
6973.21680 0.26228
6974.41016 0.262188
6975.60303 0.262096
6976.79590 0.262003
6977.98877 0.261911
6979.18311 0.261819
6980.37695 0.261736
6981.57080 0.261671
6982.76514 0.261609
6983.95898 0.261548
6985.15381 0.261488
6986.34912 0.261427
6987.54395 0.261366
6988.74023 0.261305
6989.93506 0.261245
6991.13086 0.261184
6992.32715 0.261122
6993.52295 0.261058
6994.71924 0.260995
6995.91602 0.260931
6997.11182 0.260867
6998.31006 0.260803
6999.50586 0.26074
7000.70410 0.26064
7001.90088 0.260515
7003.09912 0.260385
7004.29688 0.260255
7005.49512 0.260126
7006.69385 0.259996
7007.89209 0.259867
7009.09082 0.259737
7010.29004 0.259614
7011.48877 0.259512
7012.68799 0.259412
7013.88818 0.259313
7015.08789 0.259215
7016.28809 0.259116
7017.48779 0.259018
7018.68896 0.258919
7019.88916 0.258821
7021.08984 0.258698
7022.29102 0.258571
7023.49316 0.258443
7024.69385 0.258314
7025.89600 0.258186
7027.09814 0.258057
7028.29883 0.257929
7029.50195 0.257801
7030.70410 0.257682
7031.90723 0.25757
7033.10986 0.257462
7034.31299 0.257353
7035.51611 0.257245
7036.72021 0.257137
7037.92285 0.257029
7039.12695 0.256921
7040.33203 0.256813
7041.53613 0.256705
7042.74023 0.2566
7043.94482 0.256498
7045.14990 0.256395
7046.35498 0.256293
7047.56104 0.256191
7048.76611 0.256088
7049.97217 0.255986
7051.17822 0.255857
7052.38379 0.255726
7053.58984 0.255593
7054.79688 0.255459
7056.00391 0.255326
7057.21094 0.255192
7058.41797 0.255059
7059.62500 0.254926
7060.83301 0.254811
7062.04102 0.254705
7063.24902 0.254604
7064.45801 0.254503
7065.66602 0.254402
7066.87500 0.254301
7068.08301 0.2542
7069.29199 0.254099
7070.50195 0.253987
7071.71094 0.253859
7072.92090 0.253725
7074.13086 0.253589
7075.34082 0.253453
7076.55078 0.253317
7077.76221 0.253181
7078.97314 0.253045
7080.18408 0.252913
7081.39502 0.252804
7082.60596 0.252696
7083.81689 0.252589
7085.02881 0.252482
7086.24121 0.252375
7087.45410 0.252268
7088.66602 0.252161
7089.87793 0.252054
7091.09082 0.251924
7092.30420 0.25179
7093.51807 0.251657
7094.73096 0.251524
7095.94482 0.251391
7097.15918 0.251257
7098.37305 0.251124
7099.58691 0.250991
7100.80078 0.250875
7102.01611 0.250769
7103.23096 0.250665
7104.44580 0.250561
7105.66113 0.250457
7106.87695 0.250352
7108.09180 0.250248
7109.30908 0.250144
7110.52393 0.25004
7111.74121 0.249936
7112.95801 0.249836
7114.17383 0.249738
7115.39111 0.249639
7116.60791 0.24954
7117.82617 0.249442
7119.04297 0.249343
7120.26123 0.249239
7121.47900 0.249114
7122.69678 0.248984
7123.91602 0.248852
7125.13379 0.24872
7126.35303 0.248588
7127.57178 0.248455
7128.79199 0.248323
7130.01123 0.248192
7131.22998 0.248086
7132.45117 0.247981
7133.66992 0.247877
7134.89111 0.247773
7136.11084 0.247669
7137.33203 0.247565
7138.55322 0.247461
7139.77393 0.247357
7140.99609 0.247232
7142.21680 0.2471
7143.43896 0.24696
7144.66113 0.24682
7145.88281 0.246679
7147.10498 0.246539
7148.32812 0.246399
7149.55078 0.246259
7150.77393 0.246136
7151.99707 0.246023
7153.22119 0.245918
7154.44385 0.245812
7155.66797 0.245707
7156.89209 0.245602
7158.11621 0.245497
7159.34082 0.245391
7160.56494 0.245274
7161.79102 0.245143
7163.01611 0.245018
7164.24121 0.244894
7165.46582 0.24477
7166.69189 0.244647
7167.91797 0.244523
7169.14404 0.244399
7170.37109 0.244284
7171.59717 0.244186
7172.82422 0.244085
7174.05078 0.243983
7175.27783 0.24388
7176.50488 0.243778
7177.73291 0.243675
7178.96094 0.243573
7180.18896 0.243471
7181.41699 0.243368
7182.64600 0.24326
7183.87500 0.243147
7185.10400 0.243034
7186.33301 0.242922
7187.56201 0.242809
7188.79199 0.242696
7190.02100 0.242583
7191.25098 0.242444
7192.48096 0.24231
7193.71094 0.242185
7194.94189 0.24206
7196.17285 0.241935
7197.40381 0.24181
7198.63477 0.241685
7199.86621 0.24156
7201.09814 0.241458
7202.33008 0.241362
7203.56201 0.241271
7204.79395 0.241181
7206.02686 0.24109
7207.25879 0.241
7208.49219 0.240909
7209.72510 0.240818
7210.95801 0.240708
7212.19189 0.240588
7213.42578 0.240452
7214.66016 0.240316
7215.89404 0.240179
7217.12793 0.240043
7218.36279 0.239907
7219.59814 0.239771
7220.83301 0.239653
7222.06787 0.239543
7223.30322 0.239439
7224.53906 0.239335
7225.77490 0.239231
7227.01123 0.239127
7228.24707 0.239023
7229.48291 0.238919
7230.72021 0.238793
7231.95703 0.238651
7233.19385 0.238518
7234.43213 0.238385
7235.66895 0.238252
7236.90723 0.238119
7238.14502 0.237986
7239.38281 0.237853
7240.62207 0.237733
7241.85986 0.237626
7243.09912 0.237507
7244.33789 0.237385
7245.57715 0.237264
7246.81592 0.237143
7248.05615 0.237022
7249.29590 0.236901
7250.53613 0.236769
7251.77588 0.236622
7253.01709 0.236487
7254.25781 0.236354
7255.49902 0.236222
7256.74023 0.236089
7257.98096 0.235956
7259.22314 0.235824
7260.46387 0.235701
7261.70703 0.235594
7262.94922 0.235484
7264.19092 0.235373
7265.43408 0.235262
7266.67676 0.235151
7267.91895 0.23504
7269.16309 0.234929
7270.40576 0.234818
7271.64990 0.234707
7272.89404 0.234594
7274.13818 0.23448
7275.38184 0.234366
7276.62695 0.234253
7277.87207 0.234139
7279.11719 0.234025
7280.36182 0.233904
7281.60693 0.233764
7282.85303 0.233627
7284.09912 0.233491
7285.34521 0.233354
7286.59082 0.233218
7287.83691 0.233082
7289.08398 0.232946
7290.33105 0.232816
7291.57812 0.232706
7292.82520 0.232594
7294.07324 0.232481
7295.32080 0.232368
7296.56787 0.232254
7297.81689 0.232141
7299.06494 0.232028
7300.31299 0.231909
7301.56299 0.231771
7302.81201 0.231636
7304.06104 0.231503
7305.31006 0.23137
7306.56006 0.231237
7307.81006 0.231103
7309.06006 0.23097
7310.31006 0.230844
7311.56104 0.230737
7312.81201 0.230628
7314.06299 0.230519
7315.31299 0.23041
7316.56494 0.230301
7317.81592 0.230192
7319.06787 0.230083
7320.31982 0.229967
7321.57178 0.229833
7322.82520 0.229695
7324.07812 0.229554
7325.33105 0.229413
7326.58301 0.229273
7327.83691 0.229133
7329.08984 0.228992
7330.34424 0.228859
7331.59814 0.228744
7332.85205 0.228628
7334.10596 0.228512
7335.36084 0.228395
7336.61621 0.228279
7337.87109 0.228163
7339.12598 0.228047
7340.38184 0.227923
7341.63721 0.227782
7342.89307 0.227648
7344.14893 0.227518
7345.40576 0.227387
7346.66211 0.227257
7347.91895 0.227126
7349.17578 0.226996
7350.43311 0.226874
7351.68994 0.226769
7352.94824 0.226655
7354.20605 0.226536
7355.46387 0.226418
7356.72217 0.226299
7357.97998 0.226181
7359.23877 0.226063
7360.49805 0.225935
7361.75684 0.225792
7363.01709 0.225661
7364.27588 0.225533
7365.53613 0.225406
7366.79590 0.225278
7368.05615 0.225151
7369.31592 0.225024
7370.57715 0.224908
7371.83789 0.224805
7373.09912 0.224703
7374.35986 0.2246
7375.62207 0.224498
7376.88281 0.224395
7378.14502 0.224293
7379.40723 0.22419
7380.66895 0.224074
7381.93213 0.223947
7383.19482 0.223814
7384.45801 0.223681
7385.72119 0.223548
7386.98389 0.223415
7388.24805 0.223282
7389.51221 0.223149
7390.77588 0.223031
7392.04004 0.222923
7393.30518 0.222812
7394.56885 0.222701
7395.83398 0.222589
7397.10010 0.222478
7398.36523 0.222367
7399.62988 0.222256
7400.89600 0.222127
7402.16211 0.221992
7403.42920 0.221867
7404.69482 0.221742
7405.96094 0.221617
7407.22900 0.221492
7408.49609 0.221367
7409.76318 0.221242
7411.02979 0.221137
7412.29785 0.221034
7413.56592 0.220919
7414.83398 0.220804
7416.10303 0.22069
7417.37109 0.220575
7418.64014 0.220461
7419.90918 0.220346
7421.17920 0.220209
7422.44824 0.220074
7423.71777 0.219947
7424.98779 0.219821
7426.25781 0.219695
7427.52783 0.219569
7428.79883 0.219443
7430.06885 0.219319
7431.33984 0.219232
7432.61182 0.219141
7433.88281 0.219046
7435.15479 0.218951
7436.42676 0.218855
7437.69922 0.21876
7438.97119 0.218665
7440.24414 0.218565
7441.51611 0.218445
7442.78906 0.218327
7444.06201 0.218211
7445.33594 0.218094
7446.60889 0.217977
7447.88281 0.217861
7449.15723 0.217744
7450.43213 0.217636
7451.70605 0.217544
7452.98096 0.217455
7454.25586 0.217367
7455.53076 0.21728
7456.80615 0.217193
7458.08203 0.217105
7459.35693 0.217018
7460.63379 0.216918
7461.91016 0.216806
7463.18604 0.216687
7464.46289 0.216566
7465.74023 0.216446
7467.01709 0.216325
7468.29395 0.216205
7469.57178 0.216084
7470.85010 0.21598
7472.12695 0.215885
7473.40576 0.215806
7474.68408 0.215727
7475.96289 0.215647
7477.24219 0.215568
7478.52100 0.215489
7479.79980 0.21541
7481.08008 0.21531
7482.35889 0.2152
7483.63916 0.215067
7484.91895 0.214935
7486.20020 0.214803
7487.47998 0.21467
7488.76123 0.214538
7490.04199 0.214407
7491.32324 0.214299
7492.60498 0.214199
7493.88721 0.214108
7495.16797 0.214017
7496.45117 0.213926
7497.73291 0.213836
7499.01611 0.213745
7500.29785 0.213646
7501.58203 0.213522
7502.86523 0.2134
7504.14795 0.213279
7505.43213 0.213159
7506.71582 0.213038
7508.00000 0.212917
7509.28418 0.212796
7510.56885 0.212687
7511.85400 0.21259
7513.13916 0.212492
7514.42383 0.212392
7515.70898 0.212292
7516.99512 0.212193
7518.28076 0.212093
7519.56689 0.211994
7520.85303 0.211879
7522.14014 0.211755
7523.42578 0.211626
7524.71289 0.211498
7526.00000 0.211369
7527.28809 0.211241
7528.57617 0.211112
7529.86279 0.210984
7531.15088 0.210877
7532.43994 0.210776
7533.72803 0.210681
7535.01709 0.210586
7536.30615 0.210491
7537.59521 0.210397
7538.88477 0.210302
7540.17383 0.210204
7541.46387 0.210085
7542.75391 0.209968
7544.04395 0.209851
7545.33496 0.209734
7546.62500 0.209617
7547.91699 0.209501
7549.20801 0.209384
7550.49902 0.209277
7551.79102 0.209184
7553.08301 0.209088
7554.37500 0.208991
7555.66699 0.208893
7556.95898 0.208796
7558.25195 0.208699
7559.54492 0.208602
7560.83789 0.208489
7562.13086 0.208367
7563.42480 0.208239
7564.71924 0.20811
7566.01318 0.207981
7567.30713 0.207853
7568.60205 0.207724
7569.89600 0.207595
7571.19092 0.207489
7572.48584 0.207385
7573.78223 0.207282
7575.07715 0.20718
7576.37305 0.207077
7577.66895 0.206975
7578.96484 0.206872
7580.26221 0.206764
7581.55908 0.206638
7582.85498 0.206509
7584.15283 0.206378
7585.45020 0.206248
7586.74805 0.206117
7588.04492 0.205987
7589.34277 0.205856
7590.64209 0.205738
7591.93994 0.205631
7593.23877 0.205544
7594.53809 0.205459
7595.83691 0.205374
7597.13623 0.205289
7598.43604 0.205204
7599.73584 0.205119
7601.03613 0.205015
7602.33594 0.204901
7603.63623 0.20477
7604.93701 0.204639
7606.23779 0.204508
7607.53906 0.204377
7608.83984 0.204245
7610.14209 0.204114
7611.44385 0.203983
7612.74609 0.203858
7614.04785 0.203738
7615.35107 0.203619
7616.65283 0.203499
7617.95605 0.20338
7619.25879 0.20326
7620.56299 0.203151
7621.86621 0.203055
7623.16992 0.202966
7624.47412 0.202879
7625.77783 0.202792
7627.08301 0.202705
7628.38818 0.202617
7629.69189 0.20253
7630.99805 0.202402
7632.30322 0.202259
7633.60889 0.202101
7634.91504 0.201943
7636.22119 0.201785
7637.52686 0.201627
7638.83301 0.201469
7640.14014 0.201314
7641.44678 0.20118
7642.75391 0.201044
7644.06201 0.200908
7645.36914 0.200772
7646.67676 0.200636
7647.98486 0.2005
7649.29297 0.200364
7650.60205 0.200217
7651.91113 0.200058
7653.21924 0.199918
7654.52881 0.199781
7655.83789 0.199644
7657.14697 0.199507
7658.45801 0.19937
7659.76807 0.199233
7661.07812 0.199116
7662.38818 0.199002
7663.69922 0.198886
7665.00977 0.19877
7666.32080 0.198654
7667.63281 0.198538
7668.94385 0.198422
7670.25586 0.198302
7671.56787 0.198163
7672.88086 0.19801
7674.19287 0.197847
7675.50586 0.197685
7676.81885 0.197522
7678.13184 0.19736
7679.44580 0.197197
7680.75879 0.197048
7682.07324 0.196909
7683.38721 0.196778
7684.70215 0.196647
7686.01611 0.196516
7687.33105 0.196386
7688.64600 0.196255
7689.96094 0.196124
7691.27588 0.195971
7692.59180 0.195818
7693.90820 0.195667
7695.22412 0.195515
7696.54102 0.195364
7697.85693 0.195212
7699.17383 0.195061
7700.49121 0.19491
7701.80908 0.194759
7703.12598 0.194618
7704.44287 0.194481
7705.76221 0.194344
7707.08008 0.194207
7708.39795 0.194069
7709.71680 0.193932
7711.03613 0.193813
7712.35400 0.193697
7713.67383 0.193573
7714.99414 0.193448
7716.31299 0.193324
7717.63281 0.1932
7718.95312 0.193076
7720.27393 0.192946
7721.59424 0.192799
7722.91504 0.192652
7724.23584 0.192505
7725.55811 0.192358
7726.87891 0.192211
7728.20117 0.192064
7729.52295 0.191917
7730.84521 0.191785
7732.16699 0.191661
7733.49023 0.191543
7734.81299 0.191425
7736.13623 0.191307
7737.45996 0.191189
7738.78320 0.191072
7740.10693 0.190952
7741.43115 0.190811
7742.75488 0.190663
7744.08008 0.190508
7745.40479 0.190352
7746.72900 0.190196
7748.05518 0.190041
7749.37988 0.189885
7750.70605 0.189742
7752.03223 0.189609
7753.35791 0.189492
7754.68408 0.189377
7756.01123 0.189261
7757.33691 0.189146
7758.66504 0.18903
7759.99219 0.188915
7761.31885 0.188777
7762.64600 0.188634
7763.97510 0.188482
7765.30322 0.188331
7766.63086 0.188179
7767.95898 0.188028
7769.28906 0.187877
7770.61719 0.187726
7771.94678 0.187575
7773.27588 0.187436
7774.60596 0.187301
7775.93604 0.187165
7777.26611 0.187029
7778.59619 0.186893
7779.92676 0.186758
7781.25781 0.186643
7782.58887 0.186525
7783.91992 0.186395
7785.25195 0.186266
7786.58301 0.186137
7787.91602 0.186008
7789.24805 0.185879
7790.58008 0.185741
7791.91309 0.185589
7793.24609 0.185442
7794.57910 0.185295
7795.91211 0.185148
7797.24609 0.185002
7798.58008 0.184855
7799.91406 0.184709
7801.24805 0.184583
7802.58301 0.184458
7803.91699 0.184332
7805.25195 0.184206
7806.58691 0.18408
7807.92285 0.183954
7809.25781 0.183828
7810.59424 0.183692
7811.93018 0.183544
7813.26709 0.183404
7814.60303 0.183266
7815.93994 0.183128
7817.27686 0.182991
7818.61377 0.182853
7819.95215 0.182715
7821.29004 0.182598
7822.62695 0.18248
7823.96484 0.182357
7825.30420 0.182233
7826.64307 0.18211
7827.98096 0.181987
7829.31982 0.181864
7830.66016 0.181741
7831.99902 0.181619
7833.33887 0.181506
7834.67920 0.181393
7836.01904 0.18128
7837.35986 0.181168
7838.70020 0.181055
7840.04102 0.180943
7841.38184 0.18083
7842.72412 0.180705
7844.06494 0.180564
7845.40723 0.180424
7846.74902 0.180283
7848.09082 0.180142
7849.43408 0.180002
7850.77686 0.179874
7852.12012 0.179755
7853.46289 0.179666
7854.80615 0.179577
7856.14990 0.179489
7857.49414 0.1794
7858.83789 0.179312
7860.18213 0.17922
7861.52686 0.17911
7862.87207 0.178988
7864.21680 0.178856
7865.56201 0.178725
7866.90820 0.178593
7868.25293 0.178461
7869.59912 0.178329
7870.94482 0.178213
7872.29199 0.178104
7873.63916 0.178007
7874.98486 0.17791
7876.33301 0.177813
7877.68018 0.177716
7879.02686 0.177619
7880.37500 0.177516
7881.72314 0.177398
7883.07080 0.177277
7884.41992 0.177156
7885.76904 0.177035
7887.11816 0.176913
7888.46680 0.176792
7889.81592 0.17667
7891.16602 0.176549
7892.51611 0.176429
7893.86621 0.176312
7895.21582 0.176196
7896.56689 0.176079
7897.91699 0.175962
7899.26904 0.175846
7900.62012 0.175739
7901.97119 0.175644
7903.32324 0.175559
7904.67480 0.175476
7906.02686 0.175392
7907.37988 0.175309
7908.73193 0.175226
7910.08496 0.175141
7911.43799 0.175036
7912.79199 0.174921
7914.14502 0.174794
7915.49902 0.174666
7916.85303 0.174539
7918.20801 0.174412
7919.56201 0.174285
7920.91699 0.174172
7922.27100 0.174067
7923.62695 0.173979
7924.98193 0.173891
7926.33789 0.173803
7927.69385 0.173715
7929.04980 0.173627
7930.40576 0.173533
7931.76318 0.173424
7933.12012 0.173298
7934.47705 0.173165
7935.83398 0.173032
7937.19092 0.172899
7938.54883 0.172766
7939.90723 0.172633
7941.26611 0.172501
7942.62402 0.172373
7943.98193 0.172254
7945.34082 0.172135
7946.70117 0.172016
7948.06006 0.171898
7949.41992 0.171779
7950.77881 0.171672
7952.14014 0.171575
7953.50000 0.171482
7954.85986 0.17139
7956.22119 0.171297
7957.58203 0.171205
7958.94287 0.171112
7960.30518 0.171015
7961.66699 0.170901
7963.02881 0.170782
7964.39111 0.17066
7965.75293 0.170538
7967.11621 0.170416
7968.47900 0.170294
7969.84180 0.170173
7971.20508 0.170051
7972.56885 0.169932
7973.93311 0.169822
7975.29590 0.169711
7976.66113 0.1696
7978.02490 0.16949
7979.39014 0.169379
7980.75488 0.169281
7982.12012 0.169194
7983.48584 0.169103
7984.85205 0.169012
7986.21680 0.168921
7987.58301 0.16883
7988.95020 0.168739
7990.31592 0.168644
7991.68311 0.168536
7993.04980 0.168427
7994.41699 0.168317
7995.78516 0.168207
7997.15283 0.168097
7998.52100 0.167987
7999.88916 0.167877
8001.25781 0.167768
8002.62598 0.167652
8003.99512 0.167522
8005.36377 0.167392
8006.73389 0.167263
8008.10400 0.167133
8009.47412 0.167004
8010.84424 0.166863
8012.21387 0.166716
8013.58398 0.166595
8014.95508 0.166474
8016.32617 0.166353
8017.69824 0.166232
8019.06885 0.166111
8020.44092 0.165991
8021.81299 0.165871
8023.18506 0.165742
8024.55811 0.16561
8025.93018 0.165477
8027.30322 0.165345
8028.67578 0.165212
8030.04980 0.165081
8031.42285 0.164972
8032.79688 0.164871
8034.17090 0.164779
8035.54590 0.164687
8036.91992 0.164595
8038.29492 0.164503
8039.66992 0.164412
8041.04492 0.164304
8042.42090 0.16419
8043.79688 0.164063
8045.17285 0.163937
8046.54883 0.16381
8047.92480 0.163683
8049.30176 0.163556
8050.67920 0.16343
8052.05615 0.163303
8053.43408 0.163164
8054.81104 0.163024
8056.18896 0.162884
8057.56689 0.162744
8058.94482 0.162603
8060.32422 0.162468
8061.70312 0.162348
8063.08203 0.162246
8064.46094 0.162155
8065.84082 0.162063
8067.22119 0.161971
8068.60107 0.16188
8069.98096 0.161788
8071.36084 0.161677
8072.74219 0.161562
8074.12305 0.161444
8075.50391 0.161326
8076.88477 0.161208
8078.26709 0.16109
8079.64893 0.160972
8081.03076 0.160854
8082.41406 0.160735
8083.79590 0.160613
8085.17920 0.16049
8086.56201 0.160367
8087.94482 0.160245
8089.32910 0.160122
8090.71191 0.16001
8092.09717 0.159908
8093.48096 0.159793
8094.86523 0.159676
8096.25000 0.159559
8097.63477 0.159442
8099.02002 0.159326
8100.40576 0.159203
8101.79199 0.159066
8103.17676 0.158951
8104.56299 0.158845
8105.95020 0.15874
8107.33594 0.158634
8108.72314 0.158528
8110.10986 0.158422
8111.49805 0.158317
8112.88477 0.158199
8114.27295 0.158067
8115.66113 0.157935
8117.04883 0.157804
8118.43799 0.157672
8119.82715 0.157541
8121.21582 0.157427
8122.60498 0.157314
8123.99414 0.157199
8125.38379 0.157085
8126.77393 0.15697
8128.16406 0.156855
8129.55518 0.15674
8130.94482 0.156612
8132.33594 0.156477
8133.72803 0.15635
8135.11914 0.156222
8136.50977 0.156095
8137.90186 0.155968
8139.29395 0.15584
8140.68701 0.155713
8142.07910 0.155585
8143.47217 0.15547
8144.86523 0.155355
8146.25781 0.155241
8147.65186 0.155126
8149.04492 0.155012
8150.43896 0.154904
8151.83301 0.154809
8153.22803 0.154707
8154.62305 0.154603
8156.01807 0.154498
8157.41309 0.154393
8158.80908 0.154289
8160.20410 0.154181
8161.60010 0.154057
8162.99609 0.153935
8164.39307 0.153814
8165.78906 0.153694
8167.18604 0.153574
8168.58301 0.153453
8169.97998 0.153333
8171.37793 0.153212
8172.77588 0.153092
8174.17383 0.152972
8175.57178 0.152852
8176.97119 0.152732
8178.37012 0.152612
8179.76904 0.152492
8181.16797 0.152389
8182.56689 0.152284
8183.96680 0.152167
8185.36719 0.152049
8186.76709 0.151931
8188.16699 0.151813
8189.56787 0.151695
8190.96924 0.151563
8192.37012 0.151428
8193.77148 0.151309
8195.17383 0.15119
8196.57520 0.151071
8197.97754 0.150953
8199.37988 0.150834
8200.78223 0.150717
8202.18555 0.150601
8203.58789 0.150494
8204.99121 0.150387
8206.39648 0.15028
8207.79883 0.150173
8209.20312 0.150066
8210.60742 0.149967
8212.01172 0.14988
8213.41699 0.14977
8214.82129 0.149656
8216.22656 0.149542
8217.63184 0.149428
8219.03809 0.149314
8220.44434 0.149194
8221.85059 0.149061
8223.25684 0.148934
8224.66309 0.148811
8226.07031 0.148687
8227.47754 0.148564
8228.88477 0.14844
8230.29297 0.148319
8231.70020 0.148208
8233.10840 0.148112
8234.51660 0.148026
8235.92578 0.147939
8237.33398 0.147853
8238.74316 0.147766
8240.15234 0.147682
8241.56348 0.147615
8242.97266 0.147527
8244.38184 0.147417
8245.79297 0.147308
8247.20312 0.147198
8248.61426 0.147089
8250.02539 0.146979
8251.43652 0.146851
8252.84766 0.146734
8254.25977 0.146633
8255.67188 0.146532
8257.08398 0.146431
8258.49609 0.14633
8259.90918 0.146229
8261.32227 0.146128
8262.73535 0.146024
8264.14844 0.145912
8265.56348 0.145801
8266.97559 0.145689
8268.39062 0.145578
8269.80469 0.145466
8271.21973 0.145371
8272.63379 0.145281
8274.04883 0.145198
8275.46484 0.145114
8276.87988 0.14503
8278.29590 0.144947
8279.71191 0.144863
8281.12891 0.144764
8282.54492 0.14466
8283.96191 0.144552
8285.37891 0.144445
8286.79688 0.144337
8288.21387 0.144229
8289.63184 0.144121
8291.04980 0.144013
8292.46777 0.143905
8293.88672 0.143796
8295.30566 0.143688
8296.72461 0.143579
8298.14355 0.14347
8299.56348 0.143361
8300.98242 0.143252
8302.40332 0.143143
8303.82324 0.143033
8305.24316 0.142923
8306.66406 0.142813
8308.08496 0.142702
8309.50684 0.142592
8310.92773 0.142494
8312.34961 0.142403
8313.77148 0.142326
8315.19336 0.14225
8316.61621 0.142173
8318.03906 0.142097
8319.46191 0.14202
8320.88477 0.141931
8322.30859 0.141836
8323.73145 0.141727
8325.15527 0.141618
8326.58008 0.141509
8328.00391 0.1414
8329.42871 0.141291
8330.85352 0.141182
8332.27832 0.141073
8333.70410 0.140949
8335.12988 0.140825
8336.55566 0.140702
8337.98145 0.140578
8339.40820 0.140454
8340.83398 0.140342
8342.26074 0.140237
8343.68848 0.140152
8345.11523 0.140067
8346.54297 0.139983
8347.97070 0.139898
8349.39844 0.139814
8350.82715 0.139718
8352.25586 0.139615
8353.68457 0.139489
8355.11328 0.139362
8356.54297 0.139235
8357.97168 0.139109
8359.40137 0.138982
8360.83203 0.138855
8362.26172 0.138728
8363.69238 0.138634
8365.12305 0.138541
8366.55371 0.138448
8367.98535 0.138355
8369.41699 0.138262
8370.84863 0.138168
8372.28027 0.138075
8373.71289 0.137965
8375.14453 0.137854
8376.57812 0.137744
8378.01074 0.137633
8379.44336 0.137523
8380.87695 0.137424
8382.31055 0.137331
8383.74512 0.137235
8385.17871 0.137139
8386.61328 0.137042
8388.04785 0.136946
8389.48242 0.136849
8390.91797 0.136741
8392.35352 0.136626
8393.78906 0.136516
8395.22461 0.136406
8396.66113 0.136295
8398.09668 0.136185
8399.53418 0.136075
8400.97070 0.135974
8402.40723 0.135878
8403.84473 0.135794
8405.28223 0.135709
8406.72070 0.135624
8408.15820 0.13554
8409.59668 0.135455
8411.03516 0.135383
8412.47461 0.135316
8413.91309 0.135238
8415.35254 0.135161
8416.79199 0.135083
8418.23145 0.135005
8419.67188 0.134928
8421.11230 0.134836
8422.55273 0.134741
8423.99316 0.134651
8425.43457 0.134561
8426.87598 0.134471
8428.31738 0.134381
8429.75879 0.134291
8431.20117 0.134216
8432.64355 0.134139
8434.08594 0.134044
8435.52832 0.13395
8436.97168 0.133855
8438.41504 0.133761
8439.85840 0.133666
8441.30176 0.133571
8442.74609 0.133483
8444.19043 0.133411
8445.63477 0.133339
8447.07910 0.133267
8448.52441 0.133195
8449.96973 0.133123
8451.41504 0.133068
8452.86133 0.133008
8454.30664 0.132936
8455.75293 0.132864
8457.19922 0.132792
8458.64648 0.13272
8460.09277 0.132647
8461.54004 0.132557
8462.98828 0.132481
8464.43555 0.132422
8465.88379 0.132363
8467.33203 0.132304
8468.78027 0.132245
8470.22852 0.132186
8471.67773 0.132127
8473.12695 0.132053
8474.57617 0.131967
8476.02637 0.131882
8477.47559 0.131796
8478.92578 0.13171
8480.37695 0.131624
8481.82715 0.131538
8483.27832 0.131455
8484.72852 0.131373
8486.18066 0.13129
8487.63281 0.131208
8489.08398 0.131126
8490.53613 0.13105
8491.98926 0.130986
8493.44141 0.130926
8494.89453 0.130867
8496.34766 0.130808
8497.80078 0.13075
8499.25488 0.130691
8500.70898 0.130612
8502.16309 0.130512
8503.61719 0.130404
8505.07129 0.130294
8506.52637 0.130185
8507.98145 0.130076
8509.43848 0.129966
8510.89258 0.129857
8512.34863 0.129748
8513.80469 0.129657
8515.26074 0.129566
8516.71777 0.129474
8518.17480 0.129383
8519.63184 0.129292
8521.08887 0.1292
8522.54688 0.129104
8524.00488 0.12898
8525.46289 0.128856
8526.92090 0.128732
8528.37988 0.128608
8529.83887 0.128484
8531.29785 0.128376
8532.75781 0.128276
8534.21680 0.128192
8535.67676 0.128109
8537.13672 0.128025
8538.59766 0.127941
8540.05762 0.127856
8541.51855 0.127755
8542.98047 0.127655
8544.44141 0.127557
8545.90332 0.127459
8547.36523 0.12736
8548.82715 0.127262
8550.28906 0.127164
8551.75195 0.127066
8553.21484 0.126968
8554.67773 0.126871
8556.14160 0.126774
8557.60547 0.126677
8559.06934 0.12658
8560.53320 0.126482
8561.99707 0.126385
8563.46191 0.126274
8564.92676 0.126158
8566.39160 0.126042
8567.85742 0.125926
8569.32324 0.125811
8570.78906 0.125704
8572.25488 0.125606
8573.72168 0.125518
8575.18848 0.125431
8576.65527 0.125344
8578.12207 0.125257
8579.58984 0.12517
8581.05762 0.125071
8582.52539 0.124966
8583.99316 0.124862
8585.46191 0.124757
8586.93066 0.124653
8588.39941 0.124548
8589.86816 0.124443
8591.33789 0.124339
8592.80762 0.124235
8594.27734 0.124133
8595.74707 0.12403
8597.21777 0.123928
8598.68848 0.123825
8600.15918 0.123723
8601.63086 0.12362
8603.10156 0.123526
8604.57324 0.123441
8606.04590 0.123356
8607.51758 0.123271
8608.99023 0.123185
8610.46289 0.123105
8611.93555 0.123037
8613.40918 0.12294
8614.88281 0.122832
8616.35645 0.122724
8617.83008 0.122616
8619.30371 0.122508
8620.77832 0.122391
8622.25293 0.122266
8623.72852 0.122158
8625.20312 0.122053
8626.67871 0.121947
8628.15430 0.121841
8629.63086 0.121735
8631.10645 0.121657
8632.58301 0.121587
8634.05957 0.121515
8635.53711 0.121444
8637.01367 0.121372
8638.49121 0.121301
8639.96875 0.121229
8641.44727 0.121157
8642.92578 0.121087
8644.40430 0.121021
8645.88281 0.120954
8647.36133 0.120886
8648.84082 0.120819
8650.32031 0.120752
8651.79980 0.120685
8653.28027 0.120613
8654.76074 0.120539
8656.24121 0.120464
8657.72168 0.12039
8659.20215 0.120316
8660.68359 0.120249
8662.16504 0.120191
8663.64746 0.120121
8665.12891 0.120048
8666.61133 0.119976
8668.09375 0.119903
8669.57715 0.119831
8671.05957 0.119746
8672.54297 0.11966
8674.02637 0.119604
8675.51074 0.119548
8676.99414 0.119492
8678.47852 0.119436
8679.96289 0.119379
8681.44824 0.119323
8682.93359 0.119258
8684.41895 0.119179
8685.90430 0.1191
8687.38965 0.119021
8688.87598 0.118942
8690.36230 0.118863
8691.84863 0.118783
8693.33594 0.118693
8694.82324 0.118595
8696.31055 0.118498
8697.79785 0.1184
8699.28613 0.118302
8700.77344 0.118204
8702.26172 0.118107
8703.75098 0.118049
8705.23926 0.117996
8706.72852 0.117942
8708.21777 0.117888
8709.70801 0.117834
8711.19824 0.117793
8712.68652 0.117751
8714.17871 0.117694
8715.66895 0.117637
8717.16016 0.11758
8718.65137 0.117522
8720.14258 0.117463
8721.63379 0.117388
8723.12598 0.117299
8724.61816 0.117195
8726.11035 0.117091
8727.60352 0.116987
8729.09668 0.116883
8730.58984 0.116778
8732.08301 0.116674
8733.57715 0.116591
8735.07129 0.116515
8736.56543 0.116438
8738.05957 0.116362
8739.55469 0.116285
8741.04980 0.116208
8742.54492 0.116129
8744.04004 0.116042
8745.53613 0.115954
8747.03223 0.115865
8748.52832 0.115777
8750.02441 0.115689
8751.52148 0.1156
8753.01855 0.115514
8754.51562 0.115431
8756.01367 0.115348
8757.51172 0.115265
8759.00977 0.115182
8760.50781 0.115104
8762.00586 0.115036
8763.50488 0.114993
8765.00391 0.114958
8766.50391 0.114923
8768.00293 0.114888
8769.50293 0.114852
8771.00293 0.114805
8772.50391 0.11475
8774.00391 0.114648
8775.50488 0.114545
8777.00586 0.114443
8778.50781 0.11434
8780.00977 0.114237
8781.51172 0.114134
8783.01367 0.114037
8784.51562 0.11395
8786.01855 0.113862
8787.52148 0.113773
8789.02441 0.113685
8790.52832 0.113597
8792.03223 0.113508
8793.53613 0.113443
8795.04004 0.113386
8796.54492 0.113328
8798.04980 0.113271
8799.55469 0.113213
8801.05957 0.113139
8802.56543 0.113054
8804.07129 0.112919
8805.57715 0.112784
8807.08301 0.112649
8808.58984 0.112514
8810.09668 0.11238
8811.60352 0.112261
8813.11133 0.112161
8814.61914 0.112083
8816.12695 0.112004
8817.63477 0.111925
8819.14355 0.111847
8820.65137 0.111761
8822.16016 0.111666
8823.66992 0.111549
8825.17871 0.111428
8826.68848 0.111307
8828.19824 0.111186
8829.70898 0.111065
8831.21973 0.110966
8832.72852 0.110883
8834.24121 0.110842
8835.75195 0.110802
8837.26367 0.110761
8838.77539 0.110721
8840.28711 0.11068
8841.79980 0.110638
8843.31348 0.110547
8844.82520 0.110421
8846.33789 0.110295
8847.85059 0.110168
8849.36426 0.110042
8850.87793 0.109915
8852.39258 0.109788
8853.90723 0.109713
8855.42090 0.10964
8856.93652 0.109565
8858.45117 0.109491
8859.96680 0.109417
8861.48242 0.109343
8862.99805 0.109258
8864.51367 0.109155
8866.03027 0.109052
8867.54688 0.108949
8869.06445 0.108846
8870.58105 0.108749
8872.09863 0.108661
8873.61621 0.108611
8875.13477 0.108571
8876.65234 0.108531
8878.17090 0.108491
8879.68945 0.10845
8881.20898 0.108397
8882.72754 0.108331
8884.24707 0.108226
8885.76758 0.108121
8887.28711 0.108017
8888.80762 0.107912
8890.32812 0.107807
8891.84863 0.107702
8893.37012 0.107613
8894.89160 0.107534
8896.41309 0.107455
8897.93457 0.107376
8899.45703 0.107297
8900.97852 0.107218
8902.50195 0.107139
8904.02441 0.107062
8905.54785 0.106984
8907.07129 0.106907
8908.59473 0.106829
8910.11816 0.106751
8911.64258 0.106674
8913.16699 0.106589
8914.69238 0.106498
8916.21680 0.106407
8917.74219 0.106316
8919.26758 0.106224
8920.79297 0.106133
8922.31934 0.106041
8923.84570 0.105925
8925.37207 0.105806
8926.89941 0.105687
8928.42578 0.105567
8929.95312 0.105448
8931.48047 0.105329
8933.00879 0.10523
8934.53711 0.105169
8936.06543 0.105107
8937.59375 0.105045
8939.12305 0.104982
8940.65234 0.104926
8942.18164 0.104879
8943.71094 0.104778
8945.24121 0.104665
8946.77148 0.104551
8948.30176 0.104438
8949.83203 0.104324
8951.36328 0.104197
8952.89453 0.104097
8954.42578 0.10407
8955.95801 0.104042
8957.49023 0.104015
8959.02246 0.103987
8960.55469 0.103959
8962.08691 0.10393
8963.62012 0.103816
8965.15332 0.103674
8966.68848 0.103531
8968.22168 0.103389
8969.75586 0.103247
8971.29004 0.103104
8972.82422 0.102978
8974.35938 0.102903
8975.89453 0.102827
8977.42969 0.102752
8978.96582 0.102676
8980.50195 0.1026
8982.03809 0.102525
8983.57422 0.102415
8985.11133 0.102292
8986.64844 0.102168
8988.18555 0.102045
8989.72266 0.101921
8991.26074 0.101798
8992.79883 0.101678
8994.33691 0.10157
8995.87598 0.101462
8997.41406 0.101354
8998.95410 0.101246
9000.49316 0.101131
9002.03223 0.101002
9003.57227 0.100891
9005.11230 0.100786
9006.65332 0.100682
9008.19336 0.100577
9009.73438 0.100472
9011.27637 0.10038
9012.81738 0.100287
9014.35938 0.100179
9015.90137 0.100071
9017.44336 0.099964
9018.98633 0.099856
9020.52930 0.099743
9022.07227 0.09962
9023.61523 0.099497
9025.15918 0.099374
9026.70312 0.099252
9028.24707 0.099129
9029.79102 0.099006
9031.33594 0.098892
9032.88086 0.098779
9034.42578 0.09867
9035.97168 0.098561
9037.51758 0.098451
9039.06348 0.098341
9040.60938 0.098232
9042.15625 0.098122
9043.70312 0.09801
9045.25000 0.097898
9046.79688 0.097785
9048.34473 0.097672
9049.89258 0.097559
9051.44043 0.097447
9052.98926 0.097334
9054.53711 0.097222
9056.08594 0.097109
9057.63574 0.096997
9059.18457 0.096884
9060.73438 0.096771
9062.28418 0.096659
9063.83496 0.096549
9065.38574 0.096439
9066.93555 0.096328
9068.48730 0.096218
9070.03809 0.096108
9071.58984 0.095997
9073.14160 0.095886
9074.69336 0.095772
9076.24609 0.095657
9077.79883 0.095543
9079.35156 0.095429
9080.90430 0.095323
9082.45801 0.095223
9084.01172 0.095123
9085.56543 0.095023
9087.12012 0.094922
9088.67383 0.094822
9090.22852 0.094719
9091.78418 0.094604
9093.33887 0.094487
9094.89453 0.094368
9096.45020 0.094248
9098.00684 0.094129
9099.56152 0.09401
9101.11914 0.09389
9102.67676 0.093771
9104.23340 0.093658
9105.79102 0.093544
9107.34863 0.09343
9108.90625 0.093316
9110.46484 0.093202
9112.02344 0.093088
9113.58203 0.092973
9115.14062 0.092859
9116.70020 0.092744
9118.25977 0.092629
9119.81934 0.092514
9121.37988 0.092399
9122.93945 0.092284
9124.50000 0.092173
9126.06152 0.09206
9127.62207 0.091948
9129.18359 0.091836
9130.74512 0.091723
9132.30762 0.091611
9133.86914 0.091493
9135.43164 0.091374
9136.99512 0.091255
9138.55762 0.091136
9140.12109 0.091016
9141.68457 0.090897
9143.24805 0.090776
9144.81348 0.090654
9146.37695 0.090532
9147.94141 0.09041
9149.50586 0.090288
9151.07129 0.090166
9152.63672 0.090044
9154.20215 0.08993
9155.76855 0.089816
9157.33496 0.089702
9158.90137 0.089587
9160.46777 0.089473
9162.03516 0.089358
9163.60156 0.089241
9165.16992 0.089122
9166.73730 0.089002
9168.30566 0.088883
9169.87402 0.088764
9171.44238 0.088644
9173.01172 0.088523
9174.58008 0.088398
9176.14941 0.088274
9177.71973 0.088149
9179.28906 0.088024
9180.85938 0.087906
9182.43066 0.087795
9184.00098 0.08769
9185.57227 0.087586
9187.14355 0.087482
9188.71484 0.087377
9190.28711 0.08727
9191.85840 0.087151
9193.43164 0.087029
9195.00391 0.086905
9196.57715 0.08678
9198.15039 0.086656
9199.72363 0.086531
9201.29688 0.086399
9202.87109 0.086267
9204.44531 0.086141
9206.01953 0.086014
9207.59473 0.085887
9209.16992 0.085761
9210.74512 0.085634
9212.32031 0.085507
9213.89648 0.085367
9215.47266 0.085226
9217.04883 0.085084
9218.62598 0.084943
9220.20312 0.084801
9221.78027 0.084659
9223.35742 0.084528
9224.93555 0.084406
9226.51367 0.084284
9228.09180 0.084162
9229.66992 0.08404
9231.24902 0.083922
9232.82812 0.083802
9234.40723 0.083667
9235.98730 0.083531
9237.56738 0.083396
9239.14746 0.08326
9240.72754 0.083125
9242.30859 0.082989
9243.88965 0.082857
9245.47070 0.082726
9247.05273 0.082595
9248.63379 0.082464
9250.21680 0.082332
9251.79883 0.0822
9253.38086 0.082073
9254.96387 0.081948
9256.54785 0.081824
9258.13086 0.081699
9259.71484 0.081574
9261.29883 0.081449
9262.88281 0.081321
9264.46777 0.081186
9266.05176 0.08105
9267.63770 0.080915
9269.22266 0.080779
9270.80859 0.080643
9272.39453 0.080507
9273.98047 0.08038
9275.56641 0.080254
9277.15332 0.080128
9278.74023 0.080001
9280.32715 0.079875
9281.91504 0.079748
9283.50293 0.07962
9285.09082 0.079492
9286.67969 0.079363
9288.26758 0.079234
9289.85645 0.079105
9291.44629 0.078976
9293.03516 0.078845
9294.62500 0.07871
9296.21484 0.078575
9297.80469 0.07844
9299.39648 0.078304
9300.98633 0.078176
9302.57715 0.078053
9304.16895 0.077926
9305.76074 0.0778
9307.35254 0.077672
9308.94434 0.077545
9310.53711 0.077414
9312.12988 0.077274
9313.72266 0.077141
9315.31543 0.07701
9316.90918 0.076879
9318.50293 0.076748
9320.09668 0.076617
9321.69141 0.076485
9323.28613 0.076353
9324.88086 0.07622
9326.47559 0.076087
9328.07129 0.075954
9329.66699 0.07582
9331.26270 0.075687
9332.85938 0.075552
9334.45508 0.075411
9336.05273 0.075271
9337.64941 0.07513
9339.24707 0.074989
9340.84473 0.074847
9342.44238 0.074706
9344.04004 0.074567
9345.63867 0.074427
9347.23730 0.074288
9348.83594 0.074148
9350.43555 0.074008
9352.03516 0.073868
9353.63477 0.073729
9355.23535 0.07359
9356.83496 0.073451
9358.43555 0.073311
9360.03711 0.073172
9361.63770 0.073033
9363.23926 0.072893
9364.84082 0.072752
9366.44336 0.072611
9368.04492 0.072469
9369.64746 0.072328
9371.25000 0.072187
9372.85352 0.072045
9374.45703 0.071907
9376.06055 0.071768
9377.66406 0.07163
9379.26855 0.071491
9380.87305 0.071352
9382.47754 0.071212
9384.08301 0.071071
9385.68652 0.070929
9387.29395 0.070787
9388.89941 0.070645
9390.50586 0.070503
9392.11133 0.070361
9393.71875 0.070222
9395.32520 0.070086
9396.93262 0.069948
9398.54004 0.069811
9400.14746 0.069673
9401.75586 0.069523
9403.36426 0.069369
9404.97266 0.06921
9406.58105 0.06905
9408.19043 0.068891
9409.79980 0.068731
9411.40918 0.068571
9413.01953 0.068414
9414.62988 0.068261
9416.24023 0.068107
9417.85059 0.067954
9419.46191 0.067801
9421.07324 0.067647
9422.68457 0.067494
9424.29688 0.067335
9425.90918 0.067177
9427.52148 0.067018
9429.13379 0.06686
9430.74707 0.066704
9432.36035 0.066553
9433.97363 0.066403
9435.58789 0.066253
9437.20117 0.066104
9438.81543 0.065954
9440.43066 0.065804
9442.04492 0.065654
9443.66016 0.065502
9445.27637 0.065349
9446.89160 0.065196
9448.50781 0.065043
9450.12402 0.06489
9451.74023 0.064737
9453.35742 0.064583
9454.97461 0.06443
9456.59180 0.064276
9458.20996 0.064122
9459.82715 0.063968
9461.44531 0.063814
9463.06445 0.063661
9464.68262 0.06351
9466.30176 0.063359
9467.92090 0.063208
9469.54102 0.063056
9471.16113 0.062905
9472.78125 0.062753
9474.40137 0.062597
9476.02246 0.062442
9477.64355 0.062287
9479.26465 0.062131
9480.88574 0.061976
9482.50781 0.06182
9484.12988 0.061665
9485.75195 0.061509
9487.37500 0.061354
9488.99805 0.061198
9490.62109 0.061043
9492.24414 0.060887
9493.86816 0.060734
9495.49219 0.060581
9497.11621 0.060429
9498.74121 0.060276
9500.36621 0.060136
9501.99121 0.060044
9503.61719 0.059949
9505.24219 0.059852
9506.86816 0.059755
9508.49512 0.059658
9510.12109 0.059561
9511.74805 0.059464
9513.37500 0.059367
9515.00293 0.05927
9516.62988 0.059174
9518.25781 0.059077
9519.88672 0.05898
9521.51465 0.058884
9523.14355 0.058786
9524.77246 0.058688
9526.40234 0.058589
9528.03125 0.05849
9529.66113 0.058391
9531.29199 0.058292
9532.92188 0.058194
9534.55273 0.058101
9536.18359 0.058008
9537.81543 0.057914
9539.44629 0.057821
9541.07812 0.057727
9542.71094 0.057633
9544.34277 0.057532
9545.97559 0.05743
9547.60840 0.057329
9549.24219 0.057227
9550.87500 0.057126
9552.50879 0.057024
9554.14355 0.056928
9555.77734 0.056833
9557.41211 0.056737
9559.04688 0.056642
9560.68262 0.056546
9562.31738 0.05645
9563.95312 0.056352
9565.58984 0.056253
9567.22559 0.056154
9568.86230 0.056055
9570.49902 0.055956
9572.13672 0.055857
9573.77344 0.055755
9575.41113 0.055652
9577.04980 0.055548
9578.68652 0.055445
9580.32617 0.055341
9581.96484 0.055238
9583.60352 0.055138
9585.24414 0.05504
9586.88379 0.054942
9588.52344 0.054844
9590.16309 0.054747
9591.80371 0.054649
9593.44531 0.054549
9595.08594 0.054448
9596.72754 0.054347
9598.36914 0.054246
9600.01074 0.054145
9601.65332 0.054049
9603.29590 0.053953
9604.93848 0.053857
9606.58105 0.05376
9608.22461 0.053663
9609.86816 0.053566
9611.51172 0.053452
9613.15625 0.053337
9614.80078 0.053224
9616.44531 0.05311
9618.09082 0.052997
9619.73535 0.052883
9621.38086 0.052777
9623.02734 0.052672
9624.67285 0.052564
9626.31934 0.052457
9627.96680 0.052349
9629.61328 0.052241
9631.26074 0.052133
9632.90820 0.052026
9634.55566 0.051924
9636.20410 0.051821
9637.85254 0.051719
9639.50098 0.051616
9641.15039 0.051514
9642.79980 0.05141
9644.44922 0.051295
9646.09863 0.051181
9647.74902 0.051067
9649.39941 0.050952
9651.04980 0.050837
9652.70117 0.050723
9654.35156 0.050618
9656.00391 0.050512
9657.65527 0.050406
9659.30762 0.050301
9660.95996 0.050195
9662.61230 0.050089
9664.26562 0.049982
9665.91797 0.049875
9667.57227 0.049767
9669.22559 0.04966
9670.87988 0.049552
9672.53418 0.049445
9674.18848 0.049333
9675.84375 0.049221
9677.49902 0.049109
9679.15430 0.048996
9680.80957 0.048884
9682.46582 0.048772
9684.12207 0.048662
9685.77832 0.048553
9687.43555 0.048443
9689.09277 0.048334
9690.75000 0.048224
9692.40820 0.048115
9694.06543 0.048005
9695.72461 0.047894
9697.38281 0.047784
9699.04199 0.047674
9700.70117 0.047563
9702.36035 0.047452
9704.01953 0.047344
9705.67969 0.047236
9707.33984 0.047128
9709.00098 0.047019
9710.66113 0.046911
9712.32227 0.046802
9713.98438 0.04669
9715.64648 0.046577
9717.30762 0.046464
9718.96973 0.046351
9720.63281 0.046238
9722.29492 0.046125
9723.95801 0.046012
9725.62207 0.045899
9727.28516 0.045785
9728.94922 0.045672
9730.61426 0.045559
9732.27832 0.045446
9733.94336 0.045334
9735.60840 0.045223
9737.27344 0.045112
9738.93945 0.045001
9740.60547 0.04489
9742.27148 0.044779
9743.93848 0.044666
9745.60352 0.044554
9747.27246 0.044441
9748.93945 0.044329
9750.60742 0.044216
9752.27539 0.044103
9753.94336 0.043988
9755.61133 0.043874
9757.28027 0.043758
9758.94922 0.043643
9760.61914 0.043528
9762.28906 0.043413
9763.95898 0.043298
9765.62891 0.043184
9767.29980 0.043069
9768.97070 0.042955
9770.64160 0.04284
9772.31348 0.042725
9773.98438 0.04261
9775.65625 0.042494
9777.32910 0.042379
9779.00098 0.042263
9780.67383 0.042147
9782.34668 0.042031
9784.02148 0.041917
9785.69434 0.041803
9787.36816 0.04169
9789.04199 0.041576
9790.71680 0.041462
9792.39160 0.041347
9794.06641 0.041232
9795.74219 0.041116
9797.41797 0.041
9799.09375 0.040884
9800.77148 0.040767
9802.44629 0.040647
9804.12305 0.040526
9805.80078 0.040406
9807.47754 0.040286
9809.15527 0.040166
9810.83398 0.040045
9812.51172 0.039925
9814.19043 0.039804
9815.86914 0.039683
9817.54883 0.039561
9819.22754 0.03944
9820.90723 0.039319
9822.58789 0.039197
9824.26758 0.039076
9825.94824 0.038955
9827.62891 0.038834
9829.31055 0.038713
9830.99219 0.038594
9832.67383 0.038475
9834.35547 0.038356
9836.03809 0.038236
9837.72070 0.038117
9839.40332 0.037998
9841.08594 0.037878
9842.76953 0.037759
9844.45312 0.037638
9846.13770 0.037518
9847.82227 0.037397
9849.50684 0.037276
9851.19141 0.037156
9852.87598 0.037035
9854.56152 0.036917
9856.24805 0.036798
9857.93359 0.03668
9859.62012 0.036561
9861.30664 0.036442
9862.99316 0.036323
9864.68066 0.036202
9866.36816 0.03608
9868.05566 0.035959
9869.74414 0.035837
9871.43262 0.035715
9873.12109 0.035594
9874.80957 0.035475
9876.49902 0.035356
9878.18848 0.035236
9879.87793 0.035117
9881.56836 0.034997
9883.25879 0.034877
9884.94922 0.034754
9886.64062 0.034631
9888.33203 0.034508
9890.02344 0.034385
9891.71484 0.034261
9893.40723 0.034139
9895.09961 0.034018
9896.79199 0.033897
9898.48535 0.033776
9900.17871 0.033655
9901.87207 0.033527
9903.56543 0.033399
9905.25977 0.03327
9906.95410 0.033141
9908.64844 0.033011
9910.34375 0.032883
9912.03906 0.032759
9913.73438 0.032636
9915.43066 0.032512
9917.12695 0.032388
9918.82324 0.032263
9920.51953 0.032139
9922.21680 0.032015
9923.91406 0.031892
9925.61230 0.031769
9927.30957 0.031646
9929.00781 0.031523
9930.70605 0.0314
9932.40527 0.031277
9934.10352 0.031152
9935.80371 0.031027
9937.50293 0.030902
9939.20312 0.030777
9940.90332 0.030652
9942.60352 0.030527
9944.30469 0.030405
9946.00586 0.030282
9947.70703 0.03016
9949.40918 0.030038
9951.11035 0.029915
9952.81348 0.029792
9954.51562 0.029667
9956.21875 0.029541
9957.92188 0.029416
9959.62500 0.02929
9961.32910 0.029165
9963.03320 0.029039
9964.73730 0.028915
9966.44141 0.028791
9968.14648 0.028667
9969.85156 0.028542
9971.55762 0.028418
9973.26270 0.028293
9974.96875 0.028167
9976.67480 0.028042
9978.38184 0.027916
9980.08887 0.027791
9981.79590 0.027665
9983.50391 0.027539
9985.21094 0.027413
9986.91992 0.027288
9988.62793 0.027162
9990.33691 0.027036
9992.04590 0.02691
9993.75488 0.026784
9995.46387 0.026658
9997.17383 0.026532
9998.88379 0.026406
10000.58984 0.026286
10002.30957 0.026179
10004.01953 0.02607
10005.73047 0.025962
10007.44043 0.025854
10009.15039 0.025746
10010.86035 0.025637
10012.58008 0.025529
10014.29004 0.025419
10016.00000 0.025309
10017.70996 0.025199
10019.42969 0.025089
10021.13965 0.024979
10022.86035 0.024868
10024.57031 0.024759
10026.29004 0.02465
10028.00000 0.024541
10029.71973 0.024432
10031.42969 0.024319
10033.15039 0.024206
10034.87012 0.024094
10036.58008 0.023982
10038.29980 0.02387
10040.01953 0.023759
10041.73047 0.023651
10043.45020 0.023544
10045.16992 0.023436
10046.88965 0.023328
10048.61035 0.02322
10050.32031 0.023112
10052.04004 0.023004
10053.75977 0.022895
10055.48047 0.022784
10057.20020 0.022674
10058.91992 0.022564
10060.63965 0.022453
10062.37012 0.022343
10064.08984 0.022234
10065.80957 0.022126
10067.53027 0.022018
10069.25000 0.02191
10070.96973 0.021801
10072.70020 0.021693
10074.41992 0.021584
10076.13965 0.021476
10077.87012 0.021367
10079.58984 0.021259
10081.32031 0.02115
10083.04004 0.021041
10084.76953 0.020931
10086.49023 0.020821
10088.21973 0.020711
10089.94043 0.020601
10091.66992 0.020491
10093.38965 0.020381
10095.12012 0.020272
10096.84961 0.020162
10098.57031 0.020053
10100.29980 0.019944
10102.03027 0.019834
10103.75977 0.019724
10105.49023 0.019614
10107.20996 0.019504
10108.94043 0.019394
10110.66992 0.019284
10112.40039 0.019174
10114.12988 0.019064
10115.86035 0.018955
10117.58984 0.018846
10119.32031 0.018737
10121.04980 0.018626
10122.79004 0.018513
10124.51953 0.0184
10126.25000 0.018288
10127.98047 0.018176
10129.70996 0.018064
10131.45020 0.017954
10133.17969 0.017846
10134.91016 0.017738
10136.65039 0.01763
10138.37988 0.017521
10140.12012 0.017413
10141.84961 0.017305
10143.58008 0.017196
10145.32031 0.017085
10147.05957 0.016975
10148.79004 0.016864
10150.53027 0.016754
10152.25977 0.016643
10154.00000 0.016533
10155.74023 0.016423
10157.46973 0.016314
10159.20996 0.016204
10160.95020 0.016094
10162.69043 0.015984
10164.42969 0.015876
10166.16992 0.015767
10167.90039 0.015658
10169.63965 0.015549
10171.37988 0.01544
10173.12012 0.015331
10174.86035 0.01522
10176.59961 0.01511
10178.33984 0.015
10180.08984 0.014889
10181.83008 0.014779
10183.57031 0.014669
10185.30957 0.01456
10187.04980 0.01445
10188.79980 0.014341
10190.54004 0.014232
10192.28027 0.014123
10194.03027 0.014013
10195.76953 0.013902
10197.50977 0.013792
10199.25977 0.013682
10201.00000 0.013598
10202.75000 0.013533
10204.49023 0.013469
10206.24023 0.013406
10207.99023 0.013342
10209.73047 0.013279
10211.48047 0.013218
10213.21973 0.013156
10214.96973 0.013094
10216.71973 0.013031
10218.46973 0.012969
10220.20996 0.012906
10221.95996 0.012844
10223.70996 0.012782
10225.45996 0.01272
10227.20996 0.012658
10228.95996 0.012596
10230.70996 0.012534
10232.45996 0.012472
10234.20996 0.012411
10235.95996 0.01235
10237.70996 0.012288
10239.45996 0.012227
10241.20996 0.012166
10242.96973 0.012104
10244.71973 0.012042
10246.46973 0.01198
10248.21973 0.011919
10249.98047 0.011857
10251.73047 0.011795
10253.48047 0.011733
10255.24023 0.011672
10256.99023 0.01161
10258.75000 0.011548
10260.50000 0.011487
10262.25977 0.011425
10264.00977 0.011363
10265.76953 0.011301
10267.51953 0.011239
10269.28027 0.011177
10271.04004 0.011114
10272.79004 0.01105
10274.54980 0.010986
10276.30957 0.010921
10278.07031 0.010857
10279.82031 0.010793
10281.58008 0.010731
10283.33984 0.010669
10285.09961 0.010608
10286.86035 0.010546
10288.62012 0.010485
10290.37988 0.010424
10292.13965 0.010363
10293.90039 0.0103
10295.66016 0.010238
10297.41992 0.010175
10299.17969 0.010112
10300.95020 0.010049
10302.70996 0.009987
10304.46973 0.009926
10306.23047 0.009865
10308.00000 0.009804
10309.75977 0.009744
10311.51953 0.009683
10313.29004 0.009622
10315.04980 0.00956
10316.82031 0.009499
10318.58008 0.009437
10320.34961 0.009376
10322.11035 0.009314
10323.87988 0.009252
10325.63965 0.00919
10327.41016 0.009128
10329.17969 0.009066
10330.94043 0.009003
10332.70996 0.008941
10334.48047 0.008879
10336.25000 0.008817
10338.00977 0.008756
10339.78027 0.008694
10341.54980 0.00863
10343.32031 0.008567
10345.08984 0.008504
10346.86035 0.00844
10348.62988 0.008377
10350.40039 0.008314
10352.16992 0.008253
10353.94043 0.008191
10355.70996 0.008129
10357.48047 0.008068
10359.25000 0.008006
10361.03027 0.007944
10362.79980 0.007882
10364.57031 0.007821
10366.33984 0.00776
10368.12012 0.0077
10369.88965 0.007639
10371.66992 0.007578
10373.44043 0.007516
10375.20996 0.007454
10376.99023 0.007392
10378.75977 0.00733
10380.54004 0.007268
10382.32031 0.007206
10384.08984 0.007144
10385.87012 0.007082
10387.63965 0.007021
10389.41992 0.006959
10391.20020 0.006897
10392.98047 0.006836
10394.75000 0.006774
10396.53027 0.006713
10398.30957 0.006652
10400.08984 0.006592
10401.87012 0.006559
10403.65039 0.006526
10405.42969 0.006493
10407.20996 0.00646
10408.99023 0.006426
10410.76953 0.006394
10412.54980 0.006362
10414.33008 0.00633
10416.11035 0.006298
10417.88965 0.006266
10419.67969 0.006234
10421.45996 0.006202
10423.24023 0.00617
10425.01953 0.006138
10426.80957 0.006106
10428.58984 0.006075
10430.37988 0.006043
10432.16016 0.006011
10433.94043 0.005979
10435.73047 0.005948
10437.50977 0.005917
10439.29980 0.005886
10441.08008 0.005854
10442.87012 0.005823
10444.66016 0.005791
10446.44043 0.005759
10448.23047 0.005727
10450.01953 0.005695
10451.80957 0.005662
10453.58984 0.005629
10455.37988 0.005596
10457.16992 0.005563
10458.95996 0.00553
10460.75000 0.005498
10462.54004 0.005466
10464.33008 0.005435
10466.12012 0.005404
10467.91016 0.005373
10469.70020 0.005341
10471.49023 0.00531
10473.28027 0.005279
10475.07031 0.005247
10476.86035 0.005215
10478.66016 0.005184
10480.45020 0.005152
10482.24023 0.00512
10484.04004 0.005089
10485.83008 0.005057
10487.62012 0.005025
10489.41992 0.004994
10491.20996 0.004962
10493.00977 0.004931
10494.79980 0.004899
10496.59961 0.004867
10498.38965 0.004836
10500.19043 0.004804
10501.98047 0.004772
10503.78027 0.004739
10505.58008 0.004707
10507.37012 0.004675
10509.16992 0.004643
10510.96973 0.004611
10512.76953 0.004579
10514.57031 0.004548
10516.36035 0.004516
10518.16016 0.004484
10519.95996 0.004453
10521.75977 0.004421
10523.55957 0.00439
10525.36035 0.004358
10527.16016 0.004327
10528.95996 0.004296
10530.75977 0.004265
10532.57031 0.004233
10534.37012 0.004202
10536.16992 0.00417
10537.96973 0.004138
10539.76953 0.004106
10541.58008 0.004075
10543.37988 0.004043
10545.17969 0.004012
10546.99023 0.003981
10548.79004 0.00395
10550.59961 0.003918
10552.40039 0.003887
10554.20996 0.003854
10556.00977 0.003822
10557.82031 0.00379
10559.62012 0.003758
10561.42969 0.003727
10563.24023 0.003695
10565.04004 0.003664
10566.84961 0.003632
10568.66016 0.003601
10570.46973 0.00357
10572.26953 0.003538
10574.08008 0.003507
10575.88965 0.003476
10577.70020 0.003445
10579.50977 0.003414
10581.32031 0.003383
10583.12988 0.003351
10584.94043 0.00332
10586.75000 0.003289
10588.55957 0.003257
10590.37012 0.003226
10592.19043 0.003195
10594.00000 0.003163
10595.80957 0.003132
10597.62012 0.003101
10599.42969 0.00307
10601.25000 0.003051
10603.05957 0.003038
10604.87012 0.003024
10606.69043 0.00301
10608.50000 0.002996
10610.32031 0.002983
10612.12988 0.00297
10613.95020 0.002957
10615.75977 0.002944
10617.58008 0.002932
10619.40039 0.002919
10621.20996 0.002906
10623.03027 0.002894
10624.84961 0.002881
10626.66992 0.002868
10628.48047 0.002855
10630.29980 0.002842
10632.12012 0.002829
10633.94043 0.002816
10635.75977 0.002803
10637.58008 0.00279
10639.40039 0.002776
10641.21973 0.002763
10643.04004 0.002749
10644.86035 0.002736
10646.67969 0.002722
10648.50000 0.002709
10650.32031 0.002696
10652.13965 0.002683
10653.95996 0.00267
10655.79004 0.002657
10657.61035 0.002644
10659.42969 0.002631
10661.25977 0.002618
10663.08008 0.002605
10664.90039 0.002593
10666.73047 0.00258
10668.54980 0.002567
10670.37988 0.002555
10672.20020 0.002542
10674.03027 0.002529
10675.86035 0.002516
10677.67969 0.002503
10679.50977 0.00249
10681.33008 0.002477
10683.16016 0.002464
10684.99023 0.002451
10686.82031 0.002438
10688.65039 0.002426
10690.46973 0.002413
10692.29980 0.002399
10694.12988 0.002386
10695.95996 0.002373
10697.79004 0.00236
10699.62012 0.002346
10701.45020 0.002334
10703.28027 0.002321
10705.11035 0.002308
10706.94043 0.002295
10708.78027 0.002282
10710.61035 0.00227
10712.44043 0.002257
10714.26953 0.002244
10716.09961 0.002231
10717.94043 0.002218
10719.76953 0.002205
10721.59961 0.002192
10723.44043 0.00218
10725.26953 0.002167
10727.11035 0.002154
10728.94043 0.002142
10730.78027 0.002129
10732.61035 0.002115
10734.45020 0.002102
10736.29004 0.002089
10738.12012 0.002076
10739.95996 0.002063
10741.79980 0.00205
10743.62988 0.002038
10745.46973 0.002025
10747.30957 0.002012
10749.15039 0.001999
10750.99023 0.001987
10752.83008 0.001974
10754.66992 0.001961
10756.50977 0.001949
10758.34961 0.001936
10760.19043 0.001923
10762.03027 0.001911
10763.87012 0.001898
10765.70996 0.001886
10767.54980 0.001873
10769.38965 0.00186
10771.23047 0.001847
10773.08008 0.001834
10774.91992 0.001821
10776.75977 0.001808
10778.61035 0.001795
10780.45020 0.001782
10782.29004 0.001769
10784.13965 0.001757
10785.98047 0.001744
10787.83008 0.001731
10789.66992 0.001719
10791.51953 0.001706
10793.37012 0.001694
10795.20996 0.001681
10797.05957 0.001669
10798.91016 0.001656
10800.75000 0.001645
10802.59961 0.001635
10804.45020 0.001626
10806.29980 0.001616
10808.15039 0.001607
10810.00000 0.001597
10811.83984 0.001587
10813.69043 0.001578
10815.54004 0.001568
10817.38965 0.001558
10819.24023 0.001548
10821.08984 0.001538
10822.95020 0.001528
10824.79980 0.001519
10826.65039 0.001509
10828.50000 0.0015
10830.34961 0.00149
10832.20996 0.001481
10834.05957 0.001471
10835.91016 0.001462
10837.76953 0.001453
10839.62012 0.001443
10841.46973 0.001433
10843.33008 0.001424
10845.17969 0.001414
10847.04004 0.001404
10848.88965 0.001395
10850.75000 0.001385
10852.61035 0.001376
10854.45996 0.001366
10856.32031 0.001357
10858.17969 0.001347
10860.03027 0.001338
10861.88965 0.001328
10863.75000 0.001319
10865.61035 0.001309
10867.46973 0.0013
10869.33008 0.00129
10871.17969 0.001281
10873.04004 0.001271
10874.90039 0.001262
10876.75977 0.001253
10878.62988 0.001243
10880.49023 0.001234
10882.34961 0.001224
10884.20996 0.001215
10886.07031 0.001205
10887.92969 0.001195
10889.79980 0.001186
10891.66016 0.001177
10893.51953 0.001167
10895.37988 0.001158
10897.25000 0.001148
10899.11035 0.001139
10900.98047 0.00113
10902.83984 0.00112
10904.70996 0.001111
10906.57031 0.001102
10908.44043 0.001092
10910.29980 0.001083
10912.16992 0.001074
10914.04004 0.001065
10915.90039 0.001055
10917.76953 0.001046
10919.63965 0.001036
10921.50977 0.001027
10923.37988 0.001017
10925.24023 0.001008
10927.11035 0.000998
10928.98047 0.000989
10930.84961 0.000979
10932.71973 0.00097
10934.58984 0.000961
10936.45996 0.000951
10938.33008 0.000942
10940.20020 0.000933
10942.08008 0.000924
10943.95020 0.000914
10945.82031 0.000905
10947.69043 0.000896
10949.55957 0.000886
10951.44043 0.000877
10953.30957 0.000868
10955.17969 0.000858
10957.05957 0.000849
10958.92969 0.000839
10960.80957 0.00083
10962.67969 0.000821
10964.55957 0.000812
10966.42969 0.000802
10968.30957 0.000793
10970.19043 0.000784
10972.05957 0.000775
10973.94043 0.000766
10975.82031 0.000756
10977.69043 0.000747
10979.57031 0.000738
10981.45020 0.000729
10983.33008 0.000719
10985.20996 0.00071
10987.08984 0.000701
10988.96973 0.000691
10990.84961 0.000682
10992.73047 0.000673
10994.61035 0.000664
10996.49023 0.000654
10998.37012 0.000645
11000.25000 0.000636
11002.12988 0.00063
12102.34277 0.0
