# %ECSV 0.9
# ---
# datatype:
# - {name: wavelength, unit: Angstrom, datatype: float32}
# - {name: response, datatype: float32}
# meta: !!omap
# - {band_name: F763M}
# - {group_name: WFC3_UVIS2}
wavelength response
6417.57861 0.0
7130.64307 0.000421
7131.86279 0.000442
7133.08301 0.000474
7134.30420 0.000506
7135.52393 0.000539
7136.74512 0.000572
7137.96582 0.000604
7139.18799 0.000637
7140.40918 0.000669
7141.62988 0.000702
7142.85303 0.000749
7144.07520 0.000803
7145.29688 0.000856
7146.52002 0.000909
7147.74219 0.000962
7148.96484 0.001015
7150.18799 0.001068
7151.41211 0.001121
7152.63477 0.001191
7153.85889 0.001275
7155.08301 0.001359
7156.30713 0.001442
7157.53076 0.001526
7158.75586 0.00161
7159.98096 0.001694
7161.20605 0.001778
7162.43115 0.001881
7163.65723 0.002019
7164.88184 0.002157
7166.10791 0.002294
7167.33398 0.002432
7168.56104 0.002569
7169.78711 0.002707
7171.01416 0.002844
7172.24121 0.003005
7173.46777 0.00325
7174.69482 0.003495
7175.92285 0.003741
7177.14990 0.003986
7178.37793 0.00423
7179.60596 0.004475
7180.83496 0.00472
7182.06299 0.004979
7183.29199 0.005432
7184.52100 0.005885
7185.75000 0.006338
7186.97998 0.00679
7188.20996 0.007243
7189.43896 0.007695
7190.66992 0.008146
7191.89990 0.008597
7193.12988 0.009357
7194.36084 0.01014
7195.59180 0.010922
7196.82324 0.011703
7198.05518 0.012483
7199.28613 0.013263
7200.51807 0.014043
7201.75000 0.014823
7202.98193 0.015976
7204.21387 0.017216
7205.44678 0.018455
7206.68018 0.019694
7207.91309 0.020932
7209.14600 0.022168
7210.37891 0.023404
7211.61279 0.024637
7212.84717 0.026385
7214.08105 0.028354
7215.31494 0.030323
7216.54980 0.03229
7217.78516 0.034256
7219.02002 0.036219
7220.25488 0.038183
7221.49023 0.040148
7222.72607 0.042845
7223.96094 0.046038
7225.19678 0.049229
7226.43408 0.052419
7227.66992 0.055607
7228.90723 0.058793
7230.14404 0.061976
7231.37988 0.065147
7232.61816 0.068955
7233.85498 0.073384
7235.09277 0.07781
7236.33105 0.082231
7237.56885 0.086649
7238.80713 0.091063
7240.04492 0.095472
7241.28418 0.099889
7242.52295 0.104501
7243.76221 0.109373
7245.00195 0.114244
7246.24121 0.11911
7247.48096 0.123973
7248.72119 0.128834
7249.96094 0.133691
7251.20215 0.13853
7252.44189 0.143066
7253.68311 0.147062
7254.92383 0.151055
7256.16602 0.155044
7257.40723 0.15903
7258.64893 0.163013
7259.89111 0.16699
7261.13281 0.170982
7262.37500 0.174573
7263.61816 0.177231
7264.85986 0.179887
7266.10400 0.182542
7267.34717 0.185195
7268.58984 0.187847
7269.83398 0.190497
7271.07812 0.193144
7272.32178 0.195506
7273.56592 0.197041
7274.81104 0.198574
7276.05518 0.200107
7277.29980 0.201638
7278.54492 0.203168
7279.79102 0.204698
7281.03613 0.206207
7282.28223 0.20752
7283.52783 0.208163
7284.77393 0.208804
7286.02002 0.209444
7287.26709 0.210084
7288.51416 0.210724
7289.76123 0.211363
7291.00781 0.212019
7292.25488 0.212563
7293.50293 0.212628
7294.75098 0.212693
7295.99902 0.212758
7297.24707 0.212823
7298.49609 0.212888
7299.74512 0.212953
7300.99414 0.212999
7302.24316 0.212979
7303.49219 0.212686
7304.74219 0.212394
7305.99121 0.212102
7307.24121 0.211811
7308.49219 0.211519
7309.74219 0.211228
7310.99316 0.210955
7312.24414 0.210704
7313.49512 0.210528
7314.74609 0.210351
7315.99805 0.210174
7317.24902 0.209998
7318.50098 0.209822
7319.75293 0.209645
7321.00586 0.209451
7322.25781 0.209276
7323.51123 0.209203
7324.76416 0.20913
7326.01709 0.209057
7327.27100 0.208983
7328.52393 0.20891
7329.77783 0.208837
7331.03223 0.208783
7332.28711 0.208736
7333.54102 0.2087
7334.79590 0.208665
7336.05078 0.208629
7337.30615 0.208594
7338.56201 0.208558
7339.81689 0.208522
7341.07324 0.208467
7342.32910 0.208383
7343.58496 0.208219
7344.84082 0.208056
7346.09814 0.207892
7347.35498 0.207729
7348.61182 0.207565
7349.86914 0.207402
7351.12695 0.20726
7352.38477 0.2071
7353.64307 0.206894
7354.90088 0.206687
7356.15918 0.206481
7357.41797 0.206274
7358.67676 0.206068
7359.93604 0.205862
7361.19482 0.205634
7362.45410 0.205419
7363.71387 0.20523
7364.97412 0.205042
7366.23389 0.204853
7367.49414 0.204665
7368.75488 0.204477
7370.01611 0.204289
7371.27588 0.204124
7372.53809 0.204016
7373.79883 0.203993
7375.06104 0.20397
7376.32324 0.203947
7377.58398 0.203924
7378.84717 0.203901
7380.10889 0.203876
7381.37207 0.203831
7382.63477 0.203834
7383.89795 0.203889
7385.16211 0.203944
7386.42480 0.203999
7387.68896 0.204054
7388.95312 0.204109
7390.21680 0.204168
7391.48096 0.204245
7392.74609 0.204339
7394.01123 0.204445
7395.27588 0.204551
7396.54199 0.204656
7397.80713 0.204762
7399.07324 0.204867
7400.33789 0.204966
7401.60400 0.205049
7402.87109 0.205083
7404.13818 0.205092
7405.40381 0.205102
7406.67090 0.205111
7407.93799 0.20512
7409.20605 0.205129
7410.47412 0.205147
7411.74219 0.205179
7413.00977 0.205182
7414.27783 0.205176
7415.54688 0.205169
7416.81494 0.205163
7418.08398 0.205157
7419.35400 0.205151
7420.62305 0.205133
7421.89307 0.205104
7423.16309 0.20507
7424.43311 0.205037
7425.70312 0.205003
7426.97314 0.204969
7428.24414 0.204935
7429.51514 0.204901
7430.78613 0.20489
7432.05811 0.204893
7433.32910 0.204958
7434.60107 0.205022
7435.87305 0.205086
7437.14502 0.20515
7438.41699 0.205214
7439.68994 0.205279
7440.96289 0.205325
7442.23584 0.205378
7443.50977 0.205506
7444.78320 0.205634
7446.05713 0.205762
7447.33105 0.205889
7448.60498 0.206016
7449.87891 0.206143
7451.15381 0.206291
7452.42920 0.206431
7453.70410 0.206547
7454.97900 0.206664
7456.25488 0.20678
7457.53076 0.206895
7458.80713 0.207011
7460.08301 0.207125
7461.35889 0.207217
7462.63623 0.207326
7463.91309 0.207456
7465.18896 0.207586
7466.46680 0.207715
7467.74414 0.207844
7469.02197 0.207974
7470.29980 0.208108
7471.57812 0.20826
7472.85596 0.208337
7474.13477 0.208369
7475.41406 0.208401
7476.69189 0.208433
7477.97217 0.208464
7479.25098 0.208496
7480.53076 0.208518
7481.81104 0.208526
7483.09082 0.208528
7484.37109 0.208528
7485.65186 0.208528
7486.93311 0.208528
7488.21289 0.208528
7489.49512 0.208528
7490.77588 0.208542
7492.05811 0.208566
7493.33887 0.208555
7494.62207 0.208543
7495.90381 0.208531
7497.18701 0.208519
7498.46924 0.208507
7499.75195 0.208495
7501.03516 0.208437
7502.31885 0.208367
7503.60205 0.20829
7504.88623 0.208214
7506.16992 0.208137
7507.45508 0.20806
7508.73877 0.207983
7510.02295 0.207906
7511.30908 0.207854
7512.59424 0.20781
7513.87891 0.20778
7515.16504 0.207749
7516.45020 0.207719
7517.73584 0.207688
7519.02197 0.207657
7520.30908 0.207621
7521.59619 0.207567
7522.88281 0.207472
7524.16992 0.207352
7525.45703 0.207233
7526.74512 0.207114
7528.03320 0.206995
7529.32080 0.206875
7530.60889 0.206767
7531.89697 0.206672
7533.18604 0.206588
7534.47510 0.206505
7535.76416 0.206423
7537.05322 0.20634
7538.34277 0.206258
7539.63184 0.206175
7540.92188 0.206075
7542.21289 0.205966
7543.50293 0.20583
7544.79395 0.205694
7546.08398 0.205558
7547.37598 0.205423
7548.66699 0.205287
7549.95801 0.205151
7551.25000 0.205038
7552.54199 0.204921
7553.83398 0.204795
7555.12695 0.20467
7556.41895 0.204544
7557.71191 0.204419
7559.00488 0.204293
7560.29883 0.204162
7561.59180 0.204013
7562.88623 0.20386
7564.18018 0.203703
7565.47412 0.203547
7566.76904 0.203391
7568.06299 0.203235
7569.35791 0.203078
7570.65283 0.202934
7571.94922 0.202801
7573.24414 0.202664
7574.54004 0.202525
7575.83594 0.202387
7577.13184 0.202249
7578.42822 0.202111
7579.72510 0.201973
7581.02197 0.201817
7582.31885 0.201657
7583.61621 0.201504
7584.91406 0.201352
7586.21094 0.201199
7587.50879 0.201046
7588.80811 0.200894
7590.10596 0.200743
7591.40479 0.200614
7592.70410 0.200486
7594.00195 0.200361
7595.30176 0.200235
7596.60205 0.200109
7597.90088 0.199984
7599.20117 0.199858
7600.50098 0.199724
7601.80176 0.199575
7603.10303 0.199427
7604.40283 0.19928
7605.70410 0.199132
7607.00488 0.198985
7608.30713 0.198837
7609.60889 0.19869
7610.91113 0.198542
7612.21289 0.198393
7613.51514 0.198223
7614.81787 0.198054
7616.12109 0.197884
7617.42383 0.197715
7618.72705 0.197545
7620.03076 0.197377
7621.33398 0.197231
7622.63916 0.197076
7623.94287 0.196909
7625.24707 0.196743
7626.55176 0.196576
7627.85596 0.19641
7629.16211 0.196244
7630.46680 0.196059
7631.77197 0.195842
7633.07812 0.195611
7634.38379 0.195376
7635.68994 0.195141
7636.99707 0.194907
7638.30420 0.194673
7639.60986 0.194438
7640.91699 0.19422
7642.22510 0.194004
7643.53223 0.193742
7644.83984 0.193479
7646.14795 0.193217
7647.45605 0.192955
7648.76514 0.192693
7650.07324 0.19243
7651.38184 0.192146
7652.69092 0.191876
7654.00000 0.191622
7655.31006 0.191369
7656.62012 0.191116
7657.93018 0.190863
7659.24023 0.19061
7660.55078 0.190367
7661.86084 0.190137
7663.17188 0.18989
7664.48291 0.18964
7665.79492 0.189389
7667.10596 0.189139
7668.41797 0.188889
7669.72998 0.188639
7671.04199 0.188371
7672.35498 0.188109
7673.66699 0.187886
7674.97998 0.187664
7676.29297 0.187442
7677.60693 0.187221
7678.92090 0.186999
7680.23389 0.186781
7681.54785 0.186582
7682.86279 0.186408
7684.17676 0.186254
7685.49219 0.186099
7686.80713 0.185945
7688.12207 0.185791
7689.43701 0.185636
7690.75293 0.18547
7692.06885 0.185294
7693.38477 0.185117
7694.70117 0.184941
7696.01807 0.184764
7697.33398 0.184587
7698.65088 0.184411
7699.96924 0.184235
7701.28613 0.184059
7702.60400 0.183885
7703.92188 0.183714
7705.24023 0.183543
7706.55811 0.183373
7707.87695 0.183203
7709.19482 0.183032
7710.51514 0.182871
7711.83301 0.182722
7713.15283 0.182548
7714.47314 0.182368
7715.79297 0.182187
7717.11279 0.182006
7718.43311 0.181826
7719.75391 0.181645
7721.07520 0.181448
7722.39600 0.181247
7723.71680 0.181047
7725.03906 0.180848
7726.35986 0.180649
7727.68213 0.18045
7729.00391 0.180251
7730.32715 0.180058
7731.64893 0.17988
7732.97217 0.179722
7734.29492 0.179574
7735.61914 0.179426
7736.94189 0.179278
7738.26611 0.17913
7739.58984 0.178982
7740.91406 0.17882
7742.23779 0.17865
7743.56299 0.178476
7744.88818 0.178302
7746.21289 0.178128
7747.53809 0.177954
7748.86377 0.17778
7750.18896 0.177609
7751.51611 0.177457
7752.84180 0.177321
7754.16797 0.177201
7755.49512 0.17708
7756.82178 0.17696
7758.14893 0.176839
7759.47705 0.176719
7760.80420 0.176585
7762.13184 0.176444
7763.45996 0.176261
7764.78809 0.176078
7766.11719 0.175895
7767.44482 0.175712
7768.77393 0.17553
7770.10400 0.175347
7771.43311 0.175165
7772.76318 0.174969
7774.09277 0.174759
7775.42285 0.17455
7776.75293 0.17434
7778.08301 0.174131
7779.41504 0.173922
7780.74609 0.173724
7782.07715 0.173536
7783.40820 0.173356
7784.74023 0.173177
7786.07178 0.172998
7787.40381 0.172819
7788.73584 0.17264
7790.06885 0.17246
7791.40186 0.172261
7792.73486 0.172052
7794.06787 0.171831
7795.40186 0.171611
7796.73486 0.171391
7798.06885 0.17117
7799.40381 0.17095
7800.73779 0.170742
7802.07324 0.170543
7803.40820 0.170454
7804.74316 0.170372
7806.07812 0.17029
7807.41406 0.170208
7808.75000 0.170125
7810.08496 0.170042
7811.42188 0.169939
7812.75781 0.169806
7814.09521 0.169639
7815.43213 0.169471
7816.76904 0.169303
7818.10596 0.169136
7819.44385 0.168968
7820.78223 0.168813
7822.12012 0.168666
7823.45801 0.168555
7824.79688 0.168444
7826.13623 0.168334
7827.47510 0.168224
7828.81396 0.168114
7830.15283 0.168004
7831.49316 0.167895
7832.83301 0.167776
7834.17285 0.167649
7835.51416 0.167521
7836.85400 0.167394
7838.19482 0.167266
7839.53613 0.167138
7840.87695 0.167011
7842.21924 0.166881
7843.56104 0.166715
7844.90283 0.166548
7846.24512 0.166381
7847.58691 0.166214
7848.93018 0.166048
7850.27295 0.165885
7851.61621 0.165739
7852.95898 0.165587
7854.30322 0.165432
7855.64697 0.165276
7856.99121 0.165121
7858.33496 0.164966
7859.68018 0.164811
7861.02393 0.16464
7862.37012 0.164465
7863.71484 0.164293
7865.06006 0.164121
7866.40576 0.163949
7867.75195 0.163776
7869.09814 0.163605
7870.44385 0.163439
7871.79102 0.163287
7873.13818 0.163156
7874.48486 0.163032
7875.83203 0.162908
7877.18018 0.162785
7878.52686 0.162661
7879.87500 0.162538
7881.22412 0.162396
7882.57178 0.162233
7883.91992 0.162023
7885.27002 0.161813
7886.61914 0.161603
7887.96777 0.161394
7889.31689 0.161184
7890.66699 0.160975
7892.01807 0.160766
7893.36816 0.160562
7894.71777 0.160358
7896.06885 0.160155
7897.41992 0.159952
7898.77100 0.15975
7900.12305 0.159549
7901.47412 0.159366
7902.82617 0.159179
7904.17822 0.158986
7905.53076 0.158794
7906.88281 0.158602
7908.23584 0.15841
7909.58887 0.158219
7910.94189 0.158013
7912.29590 0.157797
7913.64893 0.157529
7915.00293 0.15726
7916.35791 0.156992
7917.71191 0.156724
7919.06689 0.156457
7920.42188 0.156195
7921.77686 0.155947
7923.13184 0.155774
7924.48779 0.155632
7925.84424 0.15549
7927.20020 0.155348
7928.55615 0.155207
7929.91309 0.155065
7931.27002 0.154906
7932.62598 0.154757
7933.98389 0.154631
7935.34082 0.154506
7936.69922 0.154381
7938.05713 0.154256
7939.41504 0.154131
7940.77295 0.154006
7942.13184 0.153881
7943.49121 0.153728
7944.85010 0.153575
7946.20898 0.153421
7947.56885 0.153268
7948.92920 0.153114
7950.28906 0.152965
7951.64893 0.152831
7953.00879 0.152677
7954.37012 0.152512
7955.73096 0.152346
7957.09180 0.152181
7958.45410 0.152016
7959.81494 0.151851
7961.17676 0.151669
7962.53906 0.151484
7963.90088 0.151292
7965.26416 0.151101
7966.62695 0.150909
7967.99023 0.150718
7969.35303 0.150527
7970.71680 0.150336
7972.08105 0.150146
7973.44385 0.150078
7974.80908 0.150022
7976.17285 0.149965
7977.53809 0.149908
7978.90283 0.149851
7980.26807 0.149798
7981.63281 0.149761
7982.99902 0.149679
7984.36523 0.149566
7985.73096 0.149452
7987.09717 0.149339
7988.46387 0.149225
7989.83105 0.149111
7991.19678 0.148985
7992.56494 0.148791
7993.93213 0.148419
7995.29980 0.148047
7996.66797 0.147676
7998.03613 0.147305
7999.40381 0.146935
8000.77295 0.146572
8002.14209 0.146215
8003.51123 0.145447
8004.87988 0.144662
8006.25000 0.143877
8007.62012 0.143093
8008.99023 0.142311
8010.35986 0.141524
8011.73096 0.140728
8013.10205 0.139686
8014.47314 0.138515
8015.84424 0.137346
8017.21484 0.136179
8018.58691 0.135013
8019.95898 0.133848
8021.33105 0.132686
8022.70410 0.131119
8024.07617 0.12884
8025.44922 0.126564
8026.82178 0.124291
8028.19482 0.122021
8029.56885 0.119754
8030.94287 0.117502
8032.31689 0.115108
8033.69092 0.110976
8035.06592 0.106849
8036.43994 0.102727
8037.81494 0.098609
8039.19092 0.094494
8040.56592 0.090381
8041.94189 0.086265
8043.31787 0.081361
8044.69385 0.076272
8046.06982 0.071189
8047.44678 0.066113
8048.82422 0.061043
8050.20117 0.055978
8051.57812 0.050923
8052.95605 0.046578
8054.33301 0.042846
8055.71191 0.039116
8057.08984 0.035393
8058.46924 0.031673
8059.84717 0.027959
8061.22705 0.024252
8062.60498 0.021113
8063.98486 0.019406
8065.36523 0.017701
8066.74512 0.015997
8068.12500 0.014296
8069.50488 0.012596
8070.88623 0.010898
8072.26709 0.009235
8073.64795 0.008529
8075.02881 0.007824
8076.41113 0.00712
8077.79199 0.006416
8079.17480 0.005714
8080.55713 0.005013
8081.93896 0.004312
8083.32178 0.003921
8084.70605 0.003608
8086.08887 0.003297
8087.47217 0.002986
8088.85596 0.002675
8090.24023 0.002364
8091.62402 0.002055
8093.00781 0.001838
8094.39307 0.001693
8095.77783 0.001548
8097.16309 0.001403
8098.54785 0.001258
8099.93408 0.001113
8101.31982 0.000969
8102.70605 0.000852
8104.09180 0.000789
8105.47900 0.000725
8106.86621 0.000661
8108.25293 0.000598
8109.64014 0.000535
8111.02783 0.000471
8112.41602 0.000413
8923.65723 0.0
