# %ECSV 0.9
# ---
# datatype:
# - {name: wavelength, unit: Angstrom, datatype: float32}
# - {name: response, datatype: float32}
# meta: !!omap
# - {band_name: sdss_z}
# - {group_name: Astralux}
wavelength response
7290.00000 0.0
8100.00000 0.000936
8105.00000 0.001034
8110.00000 0.001132
8115.00000 0.001229
8120.00000 0.001348
8125.00000 0.001487
8130.00000 0.00165
8135.00000 0.001813
8140.00000 0.002002
8145.00000 0.002214
8150.00000 0.002464
8155.00000 0.002725
8160.00000 0.003043
8165.00000 0.003355
8170.00000 0.003722
8175.00000 0.00415
8180.00000 0.004606
8185.00000 0.00513
8190.00000 0.005738
8195.00000 0.00642
8200.00000 0.007153
8205.00000 0.008041
8210.00000 0.009
8215.00000 0.010087
8220.00000 0.011358
8225.00000 0.012816
8230.00000 0.014458
8235.00000 0.01633
8240.00000 0.018479
8245.00000 0.020898
8250.00000 0.023724
8255.00000 0.026922
8260.00000 0.030553
8265.00000 0.034744
8270.00000 0.039693
8275.00000 0.045199
8280.00000 0.051677
8285.00000 0.059173
8290.00000 0.067655
8295.00000 0.077543
8300.00000 0.088758
8305.00000 0.101705
8310.00000 0.116871
8315.00000 0.133757
8320.00000 0.153463
8325.00000 0.1757
8330.00000 0.200935
8335.00000 0.229693
8340.00000 0.261408
8345.00000 0.296764
8350.00000 0.334093
8355.00000 0.375183
8360.00000 0.420121
8365.00000 0.467249
8370.00000 0.515304
8375.00000 0.564273
8380.00000 0.61365
8385.00000 0.661124
8390.00000 0.706584
8395.00000 0.747816
8400.00000 0.788033
8405.00000 0.823033
8410.00000 0.853933
8415.00000 0.880185
8420.00000 0.903029
8425.00000 0.920613
8430.00000 0.936265
8435.00000 0.948422
8440.00000 0.957963
8445.00000 0.964732
8450.00000 0.969289
8455.00000 0.973634
8460.00000 0.976838
8465.00000 0.978158
8470.00000 0.979757
8475.00000 0.980971
8480.00000 0.980287
8485.00000 0.980986
8490.00000 0.981697
8495.00000 0.981987
8500.00000 0.981457
8505.00000 0.981938
8510.00000 0.981621
8515.00000 0.982217
8520.00000 0.982367
8525.00000 0.983077
8530.00000 0.982815
8535.00000 0.983376
8540.00000 0.983219
8545.00000 0.984176
8550.00000 0.98285
8555.00000 0.982733
8560.00000 0.984078
8565.00000 0.983531
8570.00000 0.983832
8575.00000 0.98606
8580.00000 0.983898
8585.00000 0.984647
8590.00000 0.983817
8595.00000 0.983687
8600.00000 0.982752
8605.00000 0.982126
8610.00000 0.982345
8615.00000 0.981329
8620.00000 0.980896
8625.00000 0.982584
8630.00000 0.982097
8635.00000 0.982017
8640.00000 0.98151
8645.00000 0.981516
8650.00000 0.980656
8655.00000 0.979823
8660.00000 0.978267
8665.00000 0.980181
8670.00000 0.979968
8675.00000 0.980543
8680.00000 0.980076
8685.00000 0.981259
8690.00000 0.97925
8695.00000 0.980067
8700.00000 0.981309
8705.00000 0.982628
8710.00000 0.982053
8715.00000 0.981682
8720.00000 0.981955
8725.00000 0.984638
8730.00000 0.983704
8735.00000 0.982237
8740.00000 0.983971
8745.00000 0.982354
8750.00000 0.981202
8755.00000 0.983197
8760.00000 0.98328
8765.00000 0.985584
8770.00000 0.983966
8775.00000 0.983393
8780.00000 0.984809
8785.00000 0.985693
8790.00000 0.985487
8795.00000 0.97997
8800.00000 0.980456
8805.00000 0.981894
8810.00000 0.985512
8815.00000 0.983181
8820.00000 0.980685
8825.00000 0.983893
8830.00000 0.983454
8835.00000 0.980268
8840.00000 0.980047
8845.00000 0.980386
8850.00000 0.978419
8855.00000 0.977147
8860.00000 0.97818
8865.00000 0.977588
8870.00000 0.977239
8875.00000 0.979143
8880.00000 0.972409
8885.00000 0.977102
8890.00000 0.974468
8895.00000 0.968679
8900.00000 0.969218
8905.00000 0.970148
8910.00000 0.967237
8915.00000 0.968986
8920.00000 0.969366
8925.00000 0.960538
8930.00000 0.964756
8935.00000 0.96394
8940.00000 0.964499
8945.00000 0.966156
8950.00000 0.961363
8955.00000 0.963753
8960.00000 0.960288
8965.00000 0.958039
8970.00000 0.963175
8975.00000 0.963009
8980.00000 0.963595
8985.00000 0.962988
8990.00000 0.956361
8995.00000 0.95844
9000.00000 0.958644
9005.00000 0.958894
9010.00000 0.959202
9015.00000 0.959159
9020.00000 0.959531
9025.00000 0.959882
9030.00000 0.960276
9035.00000 0.96062
9040.00000 0.961081
9045.00000 0.961817
9050.00000 0.962327
9055.00000 0.963119
9060.00000 0.963543
9065.00000 0.96408
9070.00000 0.964961
9075.00000 0.965727
9080.00000 0.966598
9085.00000 0.967327
9090.00000 0.96811
9095.00000 0.969209
9100.00000 0.969757
9105.00000 0.970605
9110.00000 0.971141
9115.00000 0.972238
9120.00000 0.973529
9125.00000 0.973796
9130.00000 0.974532
9135.00000 0.975165
9140.00000 0.975793
9145.00000 0.976762
9150.00000 0.9774
9155.00000 0.978073
9160.00000 0.978776
9165.00000 0.978984
9170.00000 0.979773
9175.00000 0.980086
9180.00000 0.980502
9185.00000 0.980877
9190.00000 0.981207
9195.00000 0.981285
9200.00000 0.981528
9205.00000 0.981693
9210.00000 0.981657
9215.00000 0.981784
9220.00000 0.981789
9225.00000 0.981745
9230.00000 0.98113
9235.00000 0.981223
9240.00000 0.980969
9245.00000 0.980767
9250.00000 0.980513
9255.00000 0.98002
9260.00000 0.979287
9265.00000 0.97905
9270.00000 0.978607
9275.00000 0.978083
9280.00000 0.977698
9285.00000 0.976735
9290.00000 0.976639
9295.00000 0.975654
9300.00000 0.974823
9305.00000 0.974189
9310.00000 0.973669
9315.00000 0.97303
9320.00000 0.972062
9325.00000 0.971717
9330.00000 0.970642
9335.00000 0.970146
9340.00000 0.969347
9345.00000 0.968714
9350.00000 0.968289
9355.00000 0.967223
9360.00000 0.966644
9365.00000 0.965978
9370.00000 0.965129
9375.00000 0.964661
9380.00000 0.96405
9385.00000 0.963354
9390.00000 0.962658
9395.00000 0.962233
9400.00000 0.96191
9405.00000 0.961291
9410.00000 0.961167
9415.00000 0.960596
9420.00000 0.960306
9425.00000 0.959901
9430.00000 0.959818
9435.00000 0.959348
9440.00000 0.959339
9445.00000 0.959233
9450.00000 0.958961
9455.00000 0.95892
9460.00000 0.958689
9465.00000 0.958813
9470.00000 0.959093
9475.00000 0.959233
9480.00000 0.959676
9485.00000 0.959323
9490.00000 0.959406
9495.00000 0.959458
9500.00000 0.959961
9505.00000 0.960439
9510.00000 0.960844
9515.00000 0.961308
9520.00000 0.96142
9525.00000 0.961733
9530.00000 0.96248
9535.00000 0.963116
9540.00000 0.963299
9545.00000 0.964114
9550.00000 0.964556
9555.00000 0.96467
9560.00000 0.965264
9565.00000 0.966093
9570.00000 0.966567
9575.00000 0.967355
9580.00000 0.967598
9585.00000 0.968317
9590.00000 0.968896
9595.00000 0.969555
9600.00000 0.970355
9605.00000 0.970738
9610.00000 0.971333
9615.00000 0.971776
9620.00000 0.97233
9625.00000 0.973091
9630.00000 0.973419
9635.00000 0.97413
9640.00000 0.9745
9645.00000 0.9752
9650.00000 0.975593
9655.00000 0.975846
9660.00000 0.976344
9665.00000 0.976488
9670.00000 0.977265
9675.00000 0.97726
9680.00000 0.977465
9685.00000 0.977647
9690.00000 0.978016
9695.00000 0.978364
9700.00000 0.97875
9705.00000 0.978507
9710.00000 0.978736
9715.00000 0.978786
9720.00000 0.978821
9725.00000 0.978858
9730.00000 0.978773
9735.00000 0.978857
9740.00000 0.978755
9745.00000 0.9787
9750.00000 0.978142
9755.00000 0.978277
9760.00000 0.977858
9765.00000 0.978084
9770.00000 0.977539
9775.00000 0.97718
9780.00000 0.976906
9785.00000 0.976454
9790.00000 0.976238
9795.00000 0.9757
9800.00000 0.975482
9805.00000 0.975027
9810.00000 0.974659
9815.00000 0.974221
9820.00000 0.973769
9825.00000 0.97334
9830.00000 0.972916
9835.00000 0.972624
9840.00000 0.971918
9845.00000 0.971422
9850.00000 0.970673
9855.00000 0.970206
9860.00000 0.970078
9865.00000 0.969639
9870.00000 0.968689
9875.00000 0.968556
9880.00000 0.967616
9885.00000 0.967322
9890.00000 0.967035
9895.00000 0.966207
9900.00000 0.965834
9905.00000 0.965591
9910.00000 0.965216
9915.00000 0.965021
9920.00000 0.964408
9925.00000 0.96373
9930.00000 0.963859
9935.00000 0.963036
9940.00000 0.963354
9945.00000 0.96287
9950.00000 0.962586
9955.00000 0.962285
9960.00000 0.961804
9965.00000 0.961875
9970.00000 0.961677
9975.00000 0.961453
9980.00000 0.961383
9985.00000 0.96134
9990.00000 0.961103
9995.00000 0.96099
10000.00000 0.960942
10005.00000 0.961118
10010.00000 0.961201
10015.00000 0.961385
10020.00000 0.961601
10025.00000 0.9612
10030.00000 0.961658
10035.00000 0.961324
10040.00000 0.961849
10045.00000 0.961857
10050.00000 0.962296
10055.00000 0.962584
10060.00000 0.962839
10065.00000 0.963252
10070.00000 0.963522
10075.00000 0.963705
10080.00000 0.964258
10085.00000 0.964468
10090.00000 0.964853
10095.00000 0.965338
10100.00000 0.965206
10105.00000 0.96605
10110.00000 0.966522
10115.00000 0.966828
10120.00000 0.967305
10125.00000 0.967721
10130.00000 0.968204
10135.00000 0.968676
10140.00000 0.96895
10145.00000 0.969431
10150.00000 0.969987
10155.00000 0.970409
10160.00000 0.970923
10165.00000 0.970987
10170.00000 0.971728
10175.00000 0.972238
10180.00000 0.972499
10185.00000 0.972956
10190.00000 0.973365
10195.00000 0.973598
10200.00000 0.973923
10205.00000 0.974292
10210.00000 0.975096
10215.00000 0.975093
10220.00000 0.975736
10225.00000 0.975563
10230.00000 0.976162
10235.00000 0.976274
10240.00000 0.976529
10245.00000 0.976706
10250.00000 0.976796
10255.00000 0.976959
10260.00000 0.976877
10265.00000 0.977181
10270.00000 0.97731
10275.00000 0.977325
10280.00000 0.977357
10285.00000 0.977452
10290.00000 0.977084
10295.00000 0.977252
10300.00000 0.977276
10305.00000 0.977255
10310.00000 0.977215
10315.00000 0.976985
10320.00000 0.976705
10325.00000 0.976323
10330.00000 0.976114
10335.00000 0.976085
10340.00000 0.975764
10345.00000 0.975478
10350.00000 0.97506
10355.00000 0.974831
10360.00000 0.974147
10365.00000 0.97388
10370.00000 0.973284
10375.00000 0.972959
10380.00000 0.972398
10385.00000 0.971769
10390.00000 0.971388
10395.00000 0.970557
10400.00000 0.97012
10405.00000 0.969524
10410.00000 0.96932
10415.00000 0.968592
10420.00000 0.968335
10425.00000 0.967612
10430.00000 0.966721
10435.00000 0.966133
10440.00000 0.965429
10445.00000 0.964495
10450.00000 0.964177
10455.00000 0.963236
10460.00000 0.962876
10465.00000 0.962262
10470.00000 0.961833
10475.00000 0.960794
10480.00000 0.960119
10485.00000 0.959445
10490.00000 0.958851
10495.00000 0.958255
10500.00000 0.957618
10505.00000 0.957106
10510.00000 0.956012
10515.00000 0.955899
10520.00000 0.955128
10525.00000 0.955137
10530.00000 0.954056
10535.00000 0.953558
10540.00000 0.952865
10545.00000 0.952315
10550.00000 0.951693
10555.00000 0.951328
10560.00000 0.950653
10565.00000 0.949954
10570.00000 0.950476
10575.00000 0.949429
10580.00000 0.949189
10585.00000 0.948783
10590.00000 0.948106
10595.00000 0.947962
10600.00000 0.94759
10605.00000 0.947379
10610.00000 0.947384
10615.00000 0.946695
10620.00000 0.946897
10625.00000 0.94631
10630.00000 0.946268
10635.00000 0.945972
10640.00000 0.946346
10645.00000 0.946372
10650.00000 0.945813
10655.00000 0.946067
10660.00000 0.946033
10665.00000 0.945838
10670.00000 0.946057
10675.00000 0.946068
10680.00000 0.946304
10685.00000 0.946348
10690.00000 0.946848
10695.00000 0.946673
10700.00000 0.94696
10705.00000 0.946791
10710.00000 0.947565
10715.00000 0.947741
10720.00000 0.948161
10725.00000 0.94833
10730.00000 0.948617
10735.00000 0.949131
10740.00000 0.949472
10745.00000 0.950192
10750.00000 0.950258
10755.00000 0.951059
10760.00000 0.951317
10765.00000 0.951885
10770.00000 0.95222
10775.00000 0.952854
10780.00000 0.953177
10785.00000 0.953851
10790.00000 0.95446
10795.00000 0.954989
10800.00000 0.955712
10805.00000 0.956291
10810.00000 0.957052
10815.00000 0.957337
10820.00000 0.958292
10825.00000 0.958621
10830.00000 0.959456
10835.00000 0.960007
10840.00000 0.960802
10845.00000 0.961552
10850.00000 0.961891
10855.00000 0.962975
10860.00000 0.96314
10865.00000 0.964144
10870.00000 0.964627
10875.00000 0.965457
10880.00000 0.965856
10885.00000 0.966672
10890.00000 0.967315
10895.00000 0.968255
10900.00000 0.968522
10905.00000 0.969208
10910.00000 0.96976
10915.00000 0.970313
10920.00000 0.971049
10925.00000 0.971609
10930.00000 0.972212
10935.00000 0.972536
10940.00000 0.973077
10945.00000 0.973565
10950.00000 0.97398
10955.00000 0.974478
10960.00000 0.974878
10965.00000 0.975154
10970.00000 0.975659
10975.00000 0.976392
10980.00000 0.976211
10985.00000 0.976778
10990.00000 0.977006
10995.00000 0.977517
11000.00000 0.977704
12100.00000 0.0
