# %ECSV 0.9
# ---
# datatype:
# - {name: wavelength, unit: Angstrom, datatype: float32}
# - {name: response, datatype: float32}
# meta: !!omap
# - {band_name: Spec10}
# - {group_name: LWS}
wavelength response
65655.00000 0.0
72950.00000 0.004306
72990.00000 0.008715
73040.00000 0.01424
73080.00000 0.01866
73120.00000 0.02308
73170.00000 0.02862
73210.00000 0.03304
73260.00000 0.03857
73300.00000 0.04299
73340.00000 0.0474
73390.00000 0.0529
73430.00000 0.05729
73470.00000 0.06167
73520.00000 0.06712
73560.00000 0.07147
73600.00000 0.0758
73650.00000 0.08118
73690.00000 0.08547
73740.00000 0.09088
73780.00000 0.0953
73820.00000 0.09988
73870.00000 0.1059
73910.00000 0.111
73950.00000 0.1165
74000.00000 0.124
74040.00000 0.1305
74080.00000 0.1376
74130.00000 0.1474
74170.00000 0.156
74210.00000 0.1654
74260.00000 0.1779
74300.00000 0.1886
74350.00000 0.2028
74390.00000 0.2147
74430.00000 0.2272
74480.00000 0.2433
74520.00000 0.2567
74560.00000 0.2704
74610.00000 0.2879
74650.00000 0.3022
74690.00000 0.3167
74740.00000 0.3349
74780.00000 0.3496
74830.00000 0.3679
74870.00000 0.3825
74910.00000 0.3969
74960.00000 0.4147
75000.00000 0.4287
75040.00000 0.4424
75090.00000 0.4591
75130.00000 0.4719
75170.00000 0.4843
75220.00000 0.4992
75260.00000 0.5104
75310.00000 0.5237
75350.00000 0.5336
75390.00000 0.5429
75440.00000 0.5536
75480.00000 0.5613
75520.00000 0.5683
75570.00000 0.576
75610.00000 0.5815
75650.00000 0.5863
75700.00000 0.5915
75740.00000 0.5952
75780.00000 0.5983
75830.00000 0.6017
75870.00000 0.6039
75920.00000 0.6063
75960.00000 0.6078
76000.00000 0.6091
76050.00000 0.6105
76090.00000 0.6113
76130.00000 0.612
76180.00000 0.6126
76220.00000 0.613
76260.00000 0.6133
76310.00000 0.6135
76350.00000 0.6136
76400.00000 0.6136
76440.00000 0.6134
76480.00000 0.6132
76530.00000 0.6129
76570.00000 0.6125
76610.00000 0.6121
76660.00000 0.6115
76700.00000 0.6109
76740.00000 0.6103
76790.00000 0.6095
76830.00000 0.6089
76880.00000 0.608
76920.00000 0.6073
76960.00000 0.6066
77010.00000 0.6056
77050.00000 0.6049
77090.00000 0.6041
77140.00000 0.6032
77180.00000 0.6025
77220.00000 0.6018
77270.00000 0.601
77310.00000 0.6003
77350.00000 0.5997
77400.00000 0.599
77440.00000 0.5985
77490.00000 0.598
77530.00000 0.5976
77570.00000 0.5974
77620.00000 0.5973
77660.00000 0.5973
77700.00000 0.5975
77750.00000 0.598
77790.00000 0.5986
77830.00000 0.5995
77880.00000 0.6009
77920.00000 0.6024
77970.00000 0.6046
78010.00000 0.6067
78050.00000 0.6091
78100.00000 0.6124
78140.00000 0.6153
78180.00000 0.6183
78230.00000 0.6222
78270.00000 0.6254
78310.00000 0.6287
78360.00000 0.6327
78400.00000 0.6358
78450.00000 0.6395
78490.00000 0.6424
78530.00000 0.6451
78580.00000 0.6484
78620.00000 0.6509
78660.00000 0.6533
78710.00000 0.6562
78750.00000 0.6584
78790.00000 0.6606
78840.00000 0.6632
78880.00000 0.6653
78920.00000 0.6673
78970.00000 0.6698
79010.00000 0.6718
79060.00000 0.6742
79100.00000 0.6762
79140.00000 0.6782
79190.00000 0.6807
79230.00000 0.6828
79270.00000 0.6849
79320.00000 0.6875
79360.00000 0.6898
79400.00000 0.692
79450.00000 0.695
79490.00000 0.6974
79540.00000 0.7005
79580.00000 0.703
79620.00000 0.7056
79670.00000 0.7089
79710.00000 0.7116
79750.00000 0.7143
79800.00000 0.7177
79840.00000 0.7204
79880.00000 0.7232
79930.00000 0.7266
79970.00000 0.7294
80020.00000 0.7329
80060.00000 0.7356
80100.00000 0.7384
80150.00000 0.7418
80190.00000 0.7445
80230.00000 0.7472
80280.00000 0.7505
80320.00000 0.7531
80360.00000 0.7556
80410.00000 0.7588
80450.00000 0.7612
80490.00000 0.7636
80540.00000 0.7665
80580.00000 0.7688
80630.00000 0.7716
80670.00000 0.7738
80710.00000 0.7759
80760.00000 0.7786
80800.00000 0.7806
80840.00000 0.7826
80890.00000 0.7851
80930.00000 0.7871
80970.00000 0.789
81020.00000 0.7914
81060.00000 0.7933
81110.00000 0.7956
81150.00000 0.7974
81190.00000 0.7993
81240.00000 0.8015
81280.00000 0.8033
81320.00000 0.8051
81370.00000 0.8073
81410.00000 0.809
81450.00000 0.8108
81500.00000 0.8129
81540.00000 0.8147
81590.00000 0.8169
81630.00000 0.8186
81670.00000 0.8204
81720.00000 0.8226
81760.00000 0.8243
81800.00000 0.8261
81850.00000 0.8283
81890.00000 0.83
81930.00000 0.8318
81980.00000 0.834
82020.00000 0.8358
82060.00000 0.8376
82110.00000 0.8398
82150.00000 0.8416
82200.00000 0.8438
82240.00000 0.8456
82280.00000 0.8473
82330.00000 0.8496
82370.00000 0.8513
82410.00000 0.8531
82460.00000 0.8553
82500.00000 0.8571
82540.00000 0.8589
82590.00000 0.8611
82630.00000 0.8629
82680.00000 0.8651
82720.00000 0.8669
82760.00000 0.8686
82810.00000 0.8708
82850.00000 0.8726
82890.00000 0.8744
82940.00000 0.8766
82980.00000 0.8783
83020.00000 0.8801
83070.00000 0.8822
83110.00000 0.884
83160.00000 0.8861
83200.00000 0.8877
83240.00000 0.8894
83290.00000 0.8913
83330.00000 0.8929
83370.00000 0.8943
83420.00000 0.8961
83460.00000 0.8974
83500.00000 0.8986
83550.00000 0.9001
83590.00000 0.9011
83630.00000 0.9021
83680.00000 0.9032
83720.00000 0.9039
83770.00000 0.9047
83810.00000 0.9052
83850.00000 0.9055
83900.00000 0.9058
83940.00000 0.9059
83980.00000 0.9058
84030.00000 0.9056
84070.00000 0.9052
84110.00000 0.9047
84160.00000 0.9039
84200.00000 0.9032
84250.00000 0.9021
84290.00000 0.9011
84330.00000 0.9
84380.00000 0.8985
84420.00000 0.8972
84460.00000 0.8958
84510.00000 0.894
84550.00000 0.8925
84590.00000 0.8909
84640.00000 0.8888
84680.00000 0.8871
84730.00000 0.8848
84770.00000 0.883
84810.00000 0.8812
84860.00000 0.8788
84900.00000 0.8769
84940.00000 0.8749
84990.00000 0.8724
85030.00000 0.8705
85070.00000 0.8685
85120.00000 0.866
85160.00000 0.8639
85210.00000 0.8614
85250.00000 0.8594
85290.00000 0.8574
85340.00000 0.8548
85380.00000 0.8528
85420.00000 0.8508
85470.00000 0.8483
85510.00000 0.8463
85550.00000 0.8443
85600.00000 0.8418
85640.00000 0.8398
85680.00000 0.8379
85730.00000 0.8355
85770.00000 0.8335
85820.00000 0.8312
85860.00000 0.8293
85900.00000 0.8275
85950.00000 0.8252
85990.00000 0.8234
86030.00000 0.8217
86080.00000 0.8195
86120.00000 0.8179
86160.00000 0.8162
86210.00000 0.8142
86250.00000 0.8127
86300.00000 0.8108
86340.00000 0.8093
86380.00000 0.8079
86430.00000 0.8062
86470.00000 0.8048
86510.00000 0.8035
86560.00000 0.802
86600.00000 0.8008
86640.00000 0.7996
86690.00000 0.7982
86730.00000 0.7972
86780.00000 0.7959
86820.00000 0.7949
86860.00000 0.794
86910.00000 0.7928
86950.00000 0.792
86990.00000 0.7912
87040.00000 0.7902
87080.00000 0.7895
87120.00000 0.7888
87170.00000 0.788
87210.00000 0.7874
87250.00000 0.7869
87300.00000 0.7863
87340.00000 0.7858
87390.00000 0.7853
87430.00000 0.7849
87470.00000 0.7846
87520.00000 0.7842
87560.00000 0.7839
87600.00000 0.7837
87650.00000 0.7835
87690.00000 0.7833
87730.00000 0.7832
87780.00000 0.7831
87820.00000 0.7831
87870.00000 0.7831
87910.00000 0.7831
87950.00000 0.7831
88000.00000 0.7832
88040.00000 0.7834
88080.00000 0.7835
88130.00000 0.7837
88170.00000 0.7839
88210.00000 0.7842
88260.00000 0.7845
88300.00000 0.7848
88350.00000 0.7852
88390.00000 0.7855
88430.00000 0.7859
88480.00000 0.7864
88520.00000 0.7868
88560.00000 0.7872
88610.00000 0.7878
88650.00000 0.7883
88690.00000 0.7888
88740.00000 0.7894
88780.00000 0.7899
88820.00000 0.7905
88870.00000 0.7912
88910.00000 0.7918
88960.00000 0.7925
89000.00000 0.7931
89040.00000 0.7938
89090.00000 0.7945
89130.00000 0.7952
89170.00000 0.7959
89220.00000 0.7967
89260.00000 0.7974
89300.00000 0.7981
89350.00000 0.799
89390.00000 0.7997
89440.00000 0.8007
89480.00000 0.8014
89520.00000 0.8022
89570.00000 0.8032
89610.00000 0.804
89650.00000 0.8048
89700.00000 0.8058
89740.00000 0.8066
89780.00000 0.8075
89830.00000 0.8085
89870.00000 0.8094
89920.00000 0.8105
89960.00000 0.8114
90000.00000 0.8123
90020.00000 0.8128
90030.00000 0.813
90040.00000 0.8132
90050.00000 0.8135
90060.00000 0.8137
90080.00000 0.8142
90090.00000 0.8144
90100.00000 0.8146
90120.00000 0.8151
90130.00000 0.8153
90140.00000 0.8156
90150.00000 0.8158
90160.00000 0.816
90180.00000 0.8165
90200.00000 0.817
90220.00000 0.8175
90230.00000 0.8177
90240.00000 0.818
90250.00000 0.8182
90260.00000 0.8185
90280.00000 0.819
90300.00000 0.8195
90310.00000 0.8197
90320.00000 0.8199
90330.00000 0.8202
90340.00000 0.8205
90350.00000 0.8207
90360.00000 0.821
90380.00000 0.8215
90390.00000 0.8217
90400.00000 0.822
90420.00000 0.8225
90430.00000 0.8227
90440.00000 0.823
90450.00000 0.8232
90460.00000 0.8235
90480.00000 0.824
90500.00000 0.8245
90520.00000 0.8251
90530.00000 0.8253
90540.00000 0.8256
90550.00000 0.8259
90560.00000 0.8261
90570.00000 0.8264
90580.00000 0.8267
90600.00000 0.8272
90610.00000 0.8275
90620.00000 0.8277
90630.00000 0.828
90640.00000 0.8283
90650.00000 0.8285
90660.00000 0.8288
90680.00000 0.8293
90700.00000 0.8299
90720.00000 0.8304
90730.00000 0.8307
90740.00000 0.831
90750.00000 0.8312
90760.00000 0.8315
90780.00000 0.8321
90790.00000 0.8323
90800.00000 0.8326
90820.00000 0.8331
90830.00000 0.8334
90840.00000 0.8337
90850.00000 0.834
90860.00000 0.8342
90870.00000 0.8345
90880.00000 0.8348
90900.00000 0.8353
90920.00000 0.8359
90930.00000 0.8362
90940.00000 0.8364
90950.00000 0.8367
90960.00000 0.837
90980.00000 0.8376
91000.00000 0.8381
91010.00000 0.8384
91020.00000 0.8387
91030.00000 0.8389
91040.00000 0.8392
91050.00000 0.8395
91060.00000 0.8398
91080.00000 0.8403
91090.00000 0.8406
91100.00000 0.8409
91120.00000 0.8414
91130.00000 0.8417
91140.00000 0.842
91150.00000 0.8422
91160.00000 0.8425
91180.00000 0.8431
91200.00000 0.8436
91210.00000 0.8439
91220.00000 0.8441
91230.00000 0.8444
91240.00000 0.8447
91250.00000 0.845
91260.00000 0.8452
91270.00000 0.8455
91280.00000 0.8458
91300.00000 0.8463
91310.00000 0.8466
91320.00000 0.8469
91330.00000 0.8471
91340.00000 0.8474
91350.00000 0.8477
91360.00000 0.8479
91380.00000 0.8485
91400.00000 0.849
91420.00000 0.8495
91430.00000 0.8498
91440.00000 0.85
91450.00000 0.8503
91460.00000 0.8506
91480.00000 0.8511
91490.00000 0.8514
91500.00000 0.8516
91520.00000 0.8521
91530.00000 0.8524
91540.00000 0.8526
91550.00000 0.8529
91560.00000 0.8532
91570.00000 0.8534
91580.00000 0.8537
91600.00000 0.8542
91620.00000 0.8547
91630.00000 0.8549
91640.00000 0.8552
91650.00000 0.8554
91660.00000 0.8557
91680.00000 0.8562
91700.00000 0.8567
91720.00000 0.8571
91730.00000 0.8574
91740.00000 0.8576
91750.00000 0.8579
91760.00000 0.8581
91780.00000 0.8586
91790.00000 0.8588
91800.00000 0.8591
91820.00000 0.8595
91830.00000 0.8598
91840.00000 0.86
91850.00000 0.8602
91860.00000 0.8605
91880.00000 0.8609
91900.00000 0.8614
91920.00000 0.8618
91930.00000 0.8621
91940.00000 0.8623
91950.00000 0.8625
91960.00000 0.8627
91980.00000 0.8632
92000.00000 0.8636
92010.00000 0.8638
92020.00000 0.8641
92030.00000 0.8643
92040.00000 0.8645
92050.00000 0.8647
92060.00000 0.8649
92080.00000 0.8654
92100.00000 0.8658
92120.00000 0.8662
92130.00000 0.8664
92140.00000 0.8667
92150.00000 0.8669
92160.00000 0.8671
92180.00000 0.8675
92200.00000 0.8679
92220.00000 0.8683
92230.00000 0.8685
92240.00000 0.8687
92250.00000 0.8689
92260.00000 0.8691
92270.00000 0.8694
92280.00000 0.8696
92300.00000 0.87
92310.00000 0.8702
92320.00000 0.8704
92330.00000 0.8706
92340.00000 0.8708
92350.00000 0.871
92360.00000 0.8712
92380.00000 0.8716
92400.00000 0.872
92420.00000 0.8723
92430.00000 0.8725
92440.00000 0.8727
92450.00000 0.8729
92460.00000 0.8731
92480.00000 0.8735
92490.00000 0.8737
92500.00000 0.8739
92520.00000 0.8743
92530.00000 0.8745
92540.00000 0.8747
92550.00000 0.8749
92560.00000 0.875
92580.00000 0.8754
92600.00000 0.8758
92620.00000 0.8762
92630.00000 0.8764
92640.00000 0.8765
92650.00000 0.8767
92660.00000 0.8769
92680.00000 0.8773
92700.00000 0.8777
92710.00000 0.8778
92720.00000 0.878
92730.00000 0.8782
92740.00000 0.8784
92750.00000 0.8786
92760.00000 0.8787
92770.00000 0.8789
92780.00000 0.8791
92790.00000 0.8793
92800.00000 0.8795
92820.00000 0.8798
92830.00000 0.88
92840.00000 0.8802
92850.00000 0.8804
92860.00000 0.8805
92880.00000 0.8809
92890.00000 0.8811
92900.00000 0.8813
92920.00000 0.8816
92930.00000 0.8818
92940.00000 0.882
92950.00000 0.8821
92960.00000 0.8823
92970.00000 0.8825
92980.00000 0.8827
93000.00000 0.883
93010.00000 0.8832
93020.00000 0.8834
93030.00000 0.8835
93040.00000 0.8837
93050.00000 0.8839
93060.00000 0.8841
93080.00000 0.8844
93100.00000 0.8848
93120.00000 0.8851
93130.00000 0.8853
93140.00000 0.8854
93150.00000 0.8856
93160.00000 0.8858
93180.00000 0.8861
93190.00000 0.8863
93200.00000 0.8865
93220.00000 0.8868
93230.00000 0.887
93240.00000 0.8872
93250.00000 0.8873
93260.00000 0.8875
93270.00000 0.8877
93280.00000 0.8878
93300.00000 0.8882
93320.00000 0.8885
93330.00000 0.8887
93340.00000 0.8889
93350.00000 0.889
93360.00000 0.8892
93370.00000 0.8894
93380.00000 0.8895
93400.00000 0.8899
93420.00000 0.8902
93430.00000 0.8904
93440.00000 0.8906
93450.00000 0.8907
93460.00000 0.8909
93480.00000 0.8912
93490.00000 0.8914
93500.00000 0.8916
93520.00000 0.8919
93530.00000 0.8921
93540.00000 0.8922
93550.00000 0.8924
93560.00000 0.8926
93580.00000 0.8929
93600.00000 0.8933
93610.00000 0.8934
93620.00000 0.8936
93630.00000 0.8938
93640.00000 0.8939
93650.00000 0.8941
93660.00000 0.8943
93670.00000 0.8945
93680.00000 0.8946
93700.00000 0.895
93710.00000 0.8951
93720.00000 0.8953
93730.00000 0.8955
93740.00000 0.8957
93750.00000 0.8958
93760.00000 0.896
93780.00000 0.8963
93800.00000 0.8967
93820.00000 0.897
93830.00000 0.8972
93840.00000 0.8974
93850.00000 0.8975
93860.00000 0.8977
93880.00000 0.8981
93900.00000 0.8984
93920.00000 0.8988
93930.00000 0.8989
93940.00000 0.8991
93950.00000 0.8993
93960.00000 0.8994
93970.00000 0.8996
93980.00000 0.8998
94000.00000 0.9002
94010.00000 0.9003
94020.00000 0.9005
94030.00000 0.9007
94040.00000 0.9009
94050.00000 0.901
94060.00000 0.9012
94080.00000 0.9016
94090.00000 0.9017
94100.00000 0.9019
94120.00000 0.9023
94130.00000 0.9025
94140.00000 0.9026
94150.00000 0.9028
94160.00000 0.903
94180.00000 0.9034
94190.00000 0.9035
94200.00000 0.9037
94210.00000 0.9039
94220.00000 0.9041
94230.00000 0.9043
94240.00000 0.9045
94250.00000 0.9046
94260.00000 0.9048
94280.00000 0.9052
94300.00000 0.9056
94320.00000 0.9059
94330.00000 0.9061
94340.00000 0.9063
94350.00000 0.9065
94360.00000 0.9067
94380.00000 0.907
94400.00000 0.9074
94410.00000 0.9076
94420.00000 0.9078
94430.00000 0.908
94440.00000 0.9082
94450.00000 0.9083
94460.00000 0.9085
94480.00000 0.9089
94490.00000 0.9091
94500.00000 0.9093
94520.00000 0.9096
94530.00000 0.9098
94540.00000 0.91
94550.00000 0.9102
94560.00000 0.9104
94570.00000 0.9106
94580.00000 0.9107
94600.00000 0.9111
94620.00000 0.9115
94630.00000 0.9117
94640.00000 0.9118
94650.00000 0.912
94660.00000 0.9122
94670.00000 0.9124
94680.00000 0.9126
94690.00000 0.9127
94700.00000 0.9129
94710.00000 0.9131
94720.00000 0.9133
94730.00000 0.9135
94740.00000 0.9136
94750.00000 0.9138
94760.00000 0.914
94780.00000 0.9143
94800.00000 0.9147
94810.00000 0.9149
94820.00000 0.915
94830.00000 0.9152
94840.00000 0.9154
94850.00000 0.9155
94860.00000 0.9157
94880.00000 0.916
94890.00000 0.9162
94900.00000 0.9164
94920.00000 0.9167
94930.00000 0.9169
94940.00000 0.917
94950.00000 0.9172
94960.00000 0.9173
94970.00000 0.9175
94980.00000 0.9177
95010.00000 0.9181
95020.00000 0.9183
95030.00000 0.9184
95050.00000 0.9187
95060.00000 0.9189
95070.00000 0.919
95080.00000 0.9192
95090.00000 0.9193
95100.00000 0.9195
95110.00000 0.9196
95130.00000 0.9199
95150.00000 0.9202
95160.00000 0.9203
95170.00000 0.9204
95180.00000 0.9206
95190.00000 0.9207
95210.00000 0.921
95230.00000 0.9212
95240.00000 0.9214
95250.00000 0.9215
95260.00000 0.9216
95270.00000 0.9217
95280.00000 0.9218
95290.00000 0.922
95310.00000 0.9222
95320.00000 0.9223
95330.00000 0.9224
95350.00000 0.9226
95360.00000 0.9227
95370.00000 0.9228
95380.00000 0.923
95390.00000 0.9231
95410.00000 0.9232
95430.00000 0.9234
95450.00000 0.9236
95460.00000 0.9237
95470.00000 0.9238
95480.00000 0.9239
95490.00000 0.924
95500.00000 0.924
95510.00000 0.9241
95530.00000 0.9243
95540.00000 0.9244
95550.00000 0.9244
95560.00000 0.9245
95570.00000 0.9246
95580.00000 0.9246
95590.00000 0.9247
95610.00000 0.9248
95630.00000 0.9249
95650.00000 0.925
95660.00000 0.9251
95670.00000 0.9251
95680.00000 0.9252
95690.00000 0.9252
95710.00000 0.9253
95720.00000 0.9253
95730.00000 0.9253
95750.00000 0.9254
95760.00000 0.9254
95770.00000 0.9255
95780.00000 0.9255
95790.00000 0.9255
95800.00000 0.9255
95810.00000 0.9255
95830.00000 0.9255
95850.00000 0.9256
95860.00000 0.9256
95870.00000 0.9256
95880.00000 0.9255
95890.00000 0.9255
95910.00000 0.9255
95930.00000 0.9255
95950.00000 0.9254
95960.00000 0.9254
95970.00000 0.9254
95980.00000 0.9254
95990.00000 0.9253
96010.00000 0.9252
96020.00000 0.9252
96030.00000 0.9252
96050.00000 0.9251
96060.00000 0.925
96070.00000 0.925
96080.00000 0.9249
96090.00000 0.9248
96110.00000 0.9247
96130.00000 0.9246
96150.00000 0.9244
96160.00000 0.9243
96170.00000 0.9242
96180.00000 0.9241
96190.00000 0.924
96200.00000 0.924
96210.00000 0.9239
96230.00000 0.9236
96240.00000 0.9235
96250.00000 0.9234
96260.00000 0.9233
96270.00000 0.9232
96280.00000 0.9231
96290.00000 0.923
96310.00000 0.9227
96330.00000 0.9224
96350.00000 0.9221
96360.00000 0.922
96370.00000 0.9218
96380.00000 0.9217
96390.00000 0.9215
96410.00000 0.9212
96430.00000 0.9209
96450.00000 0.9205
96460.00000 0.9203
96470.00000 0.9202
96480.00000 0.92
96490.00000 0.9198
96500.00000 0.9196
96510.00000 0.9194
96530.00000 0.919
96540.00000 0.9188
96550.00000 0.9186
96560.00000 0.9184
96570.00000 0.9182
96580.00000 0.918
96590.00000 0.9177
96610.00000 0.9173
96630.00000 0.9168
96650.00000 0.9164
96660.00000 0.9161
96670.00000 0.9159
96680.00000 0.9156
96690.00000 0.9154
96710.00000 0.9149
96720.00000 0.9146
96730.00000 0.9144
96750.00000 0.9139
96760.00000 0.9136
96770.00000 0.9133
96780.00000 0.913
96790.00000 0.9128
96810.00000 0.9122
96830.00000 0.9117
96850.00000 0.9111
96860.00000 0.9108
96870.00000 0.9105
96880.00000 0.9102
96890.00000 0.9099
96910.00000 0.9093
96930.00000 0.9087
96940.00000 0.9084
96950.00000 0.9081
96960.00000 0.9078
96970.00000 0.9075
96980.00000 0.9071
96990.00000 0.9068
97010.00000 0.9062
97020.00000 0.9058
97030.00000 0.9055
97050.00000 0.9049
97060.00000 0.9045
97070.00000 0.9042
97080.00000 0.9039
97090.00000 0.9035
97110.00000 0.9028
97130.00000 0.9021
97150.00000 0.9014
97160.00000 0.9011
97170.00000 0.9007
97180.00000 0.9004
97190.00000 0.9
97200.00000 0.8997
97210.00000 0.8993
97230.00000 0.8986
97240.00000 0.8982
97250.00000 0.8978
97260.00000 0.8975
97270.00000 0.8971
97280.00000 0.8967
97290.00000 0.8964
97310.00000 0.8956
97330.00000 0.8948
97350.00000 0.8941
97360.00000 0.8937
97370.00000 0.8933
97380.00000 0.8929
97390.00000 0.8925
97410.00000 0.8918
97420.00000 0.8914
97430.00000 0.891
97450.00000 0.8902
97460.00000 0.8898
97470.00000 0.8894
97480.00000 0.889
97490.00000 0.8886
97500.00000 0.8882
97510.00000 0.8878
97530.00000 0.887
97550.00000 0.8862
97560.00000 0.8857
97570.00000 0.8853
97580.00000 0.8849
97590.00000 0.8845
97610.00000 0.8837
97630.00000 0.8829
97650.00000 0.882
97660.00000 0.8816
97670.00000 0.8812
97680.00000 0.8808
97690.00000 0.8804
97700.00000 0.8799
97710.00000 0.8795
97720.00000 0.8791
97730.00000 0.8787
97750.00000 0.8778
97760.00000 0.8774
97770.00000 0.877
97780.00000 0.8765
97790.00000 0.8761
97810.00000 0.8753
97820.00000 0.8748
97830.00000 0.8744
97850.00000 0.8735
97860.00000 0.8731
97870.00000 0.8727
97880.00000 0.8722
97890.00000 0.8718
97900.00000 0.8714
97910.00000 0.8709
97930.00000 0.8701
97940.00000 0.8696
97950.00000 0.8692
97960.00000 0.8688
97970.00000 0.8683
97980.00000 0.8679
97990.00000 0.8675
98010.00000 0.8666
98030.00000 0.8657
98050.00000 0.8648
98060.00000 0.8644
98070.00000 0.864
98080.00000 0.8635
98090.00000 0.8631
98110.00000 0.8622
98130.00000 0.8614
98150.00000 0.8605
98160.00000 0.86
98170.00000 0.8596
98180.00000 0.8592
98190.00000 0.8587
98200.00000 0.8583
98210.00000 0.8579
98230.00000 0.857
98240.00000 0.8565
98250.00000 0.8561
98260.00000 0.8557
98270.00000 0.8552
98280.00000 0.8548
98290.00000 0.8544
98300.00000 0.8539
98310.00000 0.8535
98330.00000 0.8526
98350.00000 0.8518
98360.00000 0.8513
98370.00000 0.8509
98380.00000 0.8505
98390.00000 0.85
98410.00000 0.8492
98420.00000 0.8488
98430.00000 0.8483
98450.00000 0.8475
98460.00000 0.847
98470.00000 0.8466
98480.00000 0.8462
98490.00000 0.8458
98510.00000 0.8449
98530.00000 0.8441
98540.00000 0.8437
98550.00000 0.8432
98560.00000 0.8428
98570.00000 0.8424
98580.00000 0.842
98590.00000 0.8416
98610.00000 0.8407
98630.00000 0.8399
98640.00000 0.8395
98650.00000 0.8391
98660.00000 0.8387
98670.00000 0.8383
98680.00000 0.8379
98690.00000 0.8374
98710.00000 0.8366
98720.00000 0.8362
98730.00000 0.8358
98750.00000 0.835
98760.00000 0.8346
98770.00000 0.8342
98780.00000 0.8338
98790.00000 0.8334
98810.00000 0.8326
98830.00000 0.8319
98850.00000 0.8311
98860.00000 0.8307
98870.00000 0.8303
98880.00000 0.8299
98890.00000 0.8295
98900.00000 0.8292
98910.00000 0.8288
98930.00000 0.828
98940.00000 0.8276
98950.00000 0.8273
98960.00000 0.8269
98970.00000 0.8265
98980.00000 0.8262
98990.00000 0.8258
99010.00000 0.8251
99020.00000 0.8247
99030.00000 0.8243
99050.00000 0.8236
99060.00000 0.8233
99070.00000 0.8229
99080.00000 0.8226
99090.00000 0.8222
99110.00000 0.8215
99120.00000 0.8212
99130.00000 0.8208
99140.00000 0.8205
99150.00000 0.8201
99160.00000 0.8198
99170.00000 0.8195
99180.00000 0.8191
99190.00000 0.8188
99200.00000 0.8185
99210.00000 0.8181
99230.00000 0.8175
99250.00000 0.8169
99260.00000 0.8165
99270.00000 0.8162
99280.00000 0.8159
99290.00000 0.8156
99310.00000 0.815
99330.00000 0.8144
99340.00000 0.8141
99350.00000 0.8138
99360.00000 0.8135
99370.00000 0.8132
99380.00000 0.8129
99390.00000 0.8126
99410.00000 0.812
99420.00000 0.8118
99430.00000 0.8115
99450.00000 0.8109
99460.00000 0.8107
99470.00000 0.8104
99480.00000 0.8101
99490.00000 0.8099
99500.00000 0.8096
99510.00000 0.8093
99530.00000 0.8088
99550.00000 0.8083
99560.00000 0.8081
99570.00000 0.8078
99580.00000 0.8076
99590.00000 0.8073
99600.00000 0.8071
99610.00000 0.8069
99620.00000 0.8066
99630.00000 0.8064
99640.00000 0.8062
99650.00000 0.8059
99660.00000 0.8057
99670.00000 0.8055
99680.00000 0.8053
99690.00000 0.8051
99700.00000 0.8048
99710.00000 0.8046
99730.00000 0.8042
99740.00000 0.804
99750.00000 0.8038
99760.00000 0.8036
99770.00000 0.8034
99780.00000 0.8032
99790.00000 0.803
99810.00000 0.8026
99830.00000 0.8023
99850.00000 0.8019
99860.00000 0.8017
99870.00000 0.8016
99880.00000 0.8014
99890.00000 0.8012
99900.00000 0.801
99910.00000 0.8009
99930.00000 0.8006
99950.00000 0.8002
99960.00000 0.8001
99970.00000 0.7999
99980.00000 0.7998
99990.00000 0.7996
100000.00000 0.7995
100100.00000 0.7982
100200.00000 0.7971
100300.00000 0.7963
100400.00000 0.7957
100500.00000 0.7954
100600.00000 0.7953
100700.00000 0.7955
100800.00000 0.7959
100900.00000 0.7965
101000.00000 0.7974
101100.00000 0.7986
101200.00000 0.8
101300.00000 0.8016
101400.00000 0.8035
101500.00000 0.8057
101600.00000 0.8082
101700.00000 0.8109
101800.00000 0.8139
101900.00000 0.8172
102000.00000 0.8208
102100.00000 0.8248
102200.00000 0.829
102300.00000 0.8336
102400.00000 0.8386
102500.00000 0.8438
102600.00000 0.8495
102700.00000 0.8555
102800.00000 0.8618
102900.00000 0.8685
103000.00000 0.8754
103100.00000 0.8824
103200.00000 0.8895
103300.00000 0.8967
103400.00000 0.9038
103500.00000 0.9108
103600.00000 0.9176
103700.00000 0.9242
103800.00000 0.9305
103900.00000 0.9364
104000.00000 0.9419
104100.00000 0.9469
104200.00000 0.9513
104300.00000 0.9551
104400.00000 0.9583
104500.00000 0.961
104600.00000 0.9633
104700.00000 0.9651
104800.00000 0.9666
104900.00000 0.9678
105000.00000 0.9689
105100.00000 0.9698
105200.00000 0.9706
105300.00000 0.9713
105400.00000 0.9721
105500.00000 0.9727
105600.00000 0.973
105700.00000 0.9731
105800.00000 0.9727
105900.00000 0.9719
106000.00000 0.9705
106100.00000 0.9684
106200.00000 0.9656
106300.00000 0.962
106400.00000 0.9576
106500.00000 0.9527
106600.00000 0.9473
106700.00000 0.9415
106800.00000 0.9354
106900.00000 0.9292
107000.00000 0.9229
107100.00000 0.9167
107200.00000 0.9106
107300.00000 0.9048
107400.00000 0.8993
107500.00000 0.8943
107600.00000 0.8896
107700.00000 0.8853
107800.00000 0.8812
107900.00000 0.8775
108000.00000 0.8741
108100.00000 0.871
108200.00000 0.8682
108300.00000 0.8656
108400.00000 0.8632
108500.00000 0.861
108600.00000 0.859
108700.00000 0.8571
108800.00000 0.8554
108900.00000 0.8539
109000.00000 0.8524
109100.00000 0.851
109200.00000 0.8497
109300.00000 0.8485
109400.00000 0.8473
109500.00000 0.8461
109600.00000 0.845
109700.00000 0.844
109800.00000 0.843
109900.00000 0.8421
110000.00000 0.8413
110100.00000 0.8406
110200.00000 0.84
110300.00000 0.8394
110400.00000 0.839
110500.00000 0.8386
110600.00000 0.8384
110700.00000 0.8383
110800.00000 0.8383
110900.00000 0.8384
111000.00000 0.8387
111100.00000 0.8391
111200.00000 0.8397
111300.00000 0.8403
111400.00000 0.8412
111500.00000 0.842
111600.00000 0.843
111700.00000 0.844
111800.00000 0.845
111900.00000 0.846
112000.00000 0.8469
112100.00000 0.8478
112200.00000 0.8485
112300.00000 0.8492
112400.00000 0.8497
112500.00000 0.8501
112600.00000 0.8502
112700.00000 0.8502
112800.00000 0.8499
112900.00000 0.8494
113000.00000 0.8489
113100.00000 0.8483
113200.00000 0.8479
113300.00000 0.8476
113400.00000 0.8475
113500.00000 0.8478
113600.00000 0.8483
113700.00000 0.8491
113800.00000 0.8502
113900.00000 0.8513
114000.00000 0.8526
114100.00000 0.854
114200.00000 0.8554
114300.00000 0.8568
114400.00000 0.8581
114500.00000 0.8593
114600.00000 0.8605
114700.00000 0.8616
114800.00000 0.8627
114900.00000 0.8638
115000.00000 0.8649
115100.00000 0.8661
115200.00000 0.8673
115300.00000 0.8687
115400.00000 0.8701
115500.00000 0.8717
115600.00000 0.8734
115700.00000 0.8753
115800.00000 0.8774
115900.00000 0.8797
116000.00000 0.8821
116100.00000 0.8847
116200.00000 0.8873
116300.00000 0.8901
116400.00000 0.8929
116500.00000 0.8958
116600.00000 0.8986
116700.00000 0.9016
116800.00000 0.9044
116900.00000 0.9073
117000.00000 0.9101
117100.00000 0.9129
117200.00000 0.9155
117300.00000 0.9181
117400.00000 0.9205
117500.00000 0.9228
117600.00000 0.9249
117700.00000 0.9269
117800.00000 0.9286
117900.00000 0.9301
118000.00000 0.9314
118100.00000 0.9324
118200.00000 0.9331
118300.00000 0.9336
118400.00000 0.9337
118500.00000 0.9335
118600.00000 0.933
118700.00000 0.9323
118800.00000 0.9313
118900.00000 0.93
119000.00000 0.9285
119100.00000 0.9267
119200.00000 0.9248
119300.00000 0.9227
119400.00000 0.9204
119500.00000 0.9179
119600.00000 0.9153
119700.00000 0.9125
119800.00000 0.9097
119900.00000 0.9067
120000.00000 0.9036
120100.00000 0.9004
120200.00000 0.8972
120300.00000 0.8939
120400.00000 0.8906
120500.00000 0.8873
120600.00000 0.8839
120700.00000 0.8806
120800.00000 0.8773
120900.00000 0.874
121000.00000 0.8707
121100.00000 0.8675
121200.00000 0.8644
121300.00000 0.8613
121400.00000 0.8584
121500.00000 0.8555
121600.00000 0.8528
121700.00000 0.8502
121800.00000 0.8478
121900.00000 0.8455
122000.00000 0.8435
122100.00000 0.8416
122200.00000 0.8399
122300.00000 0.8385
122400.00000 0.8373
122500.00000 0.8363
122600.00000 0.8356
122700.00000 0.8353
122800.00000 0.8352
122900.00000 0.8354
123000.00000 0.8359
123100.00000 0.8366
123200.00000 0.8375
123300.00000 0.8387
123400.00000 0.84
123500.00000 0.8414
123600.00000 0.843
123700.00000 0.8446
123800.00000 0.8463
123900.00000 0.8481
124000.00000 0.8498
124100.00000 0.8516
124200.00000 0.8532
124300.00000 0.8548
124400.00000 0.8564
124500.00000 0.8579
124600.00000 0.8593
124700.00000 0.8608
124800.00000 0.8623
124900.00000 0.8638
125000.00000 0.8654
125100.00000 0.867
125200.00000 0.8688
125300.00000 0.8708
125400.00000 0.8728
125500.00000 0.8751
125600.00000 0.8776
125700.00000 0.8803
125800.00000 0.8833
125900.00000 0.8866
126000.00000 0.8902
126100.00000 0.8941
126200.00000 0.8984
126300.00000 0.903
126400.00000 0.9077
126500.00000 0.9117
126600.00000 0.9143
126700.00000 0.9152
126800.00000 0.915
126900.00000 0.9142
127000.00000 0.9135
127100.00000 0.913
127200.00000 0.9127
127300.00000 0.9126
127400.00000 0.9126
127500.00000 0.9127
127600.00000 0.9127
127700.00000 0.9127
127800.00000 0.9126
127900.00000 0.9123
128000.00000 0.9118
128100.00000 0.9111
128200.00000 0.9099
128300.00000 0.9085
128400.00000 0.9067
128500.00000 0.9046
128600.00000 0.9023
128700.00000 0.8999
128800.00000 0.8973
128900.00000 0.8947
129000.00000 0.8921
129100.00000 0.8895
129200.00000 0.887
129300.00000 0.8846
129400.00000 0.8824
129500.00000 0.8804
129600.00000 0.8786
129700.00000 0.8769
129800.00000 0.8755
129900.00000 0.8742
130000.00000 0.873
130100.00000 0.872
130200.00000 0.8712
130300.00000 0.8705
130400.00000 0.8699
130500.00000 0.8694
130600.00000 0.869
130700.00000 0.8688
130800.00000 0.8686
130900.00000 0.8686
131000.00000 0.8686
131100.00000 0.8687
131200.00000 0.8688
131300.00000 0.8691
131400.00000 0.8694
131500.00000 0.8698
131600.00000 0.8703
131700.00000 0.871
131800.00000 0.8718
131900.00000 0.8727
132000.00000 0.8738
132100.00000 0.875
132200.00000 0.8765
132300.00000 0.8781
132400.00000 0.88
132500.00000 0.882
132600.00000 0.8843
132700.00000 0.8868
132800.00000 0.8895
132900.00000 0.8923
133000.00000 0.8951
133100.00000 0.8979
133200.00000 0.9006
133300.00000 0.903
133400.00000 0.9053
133500.00000 0.9072
133600.00000 0.9088
133700.00000 0.9102
133800.00000 0.9113
133900.00000 0.9123
134000.00000 0.913
134100.00000 0.9135
134200.00000 0.9139
134300.00000 0.9142
134400.00000 0.9143
134500.00000 0.9144
134600.00000 0.9144
134700.00000 0.9143
134800.00000 0.9143
134900.00000 0.9142
135000.00000 0.9141
135100.00000 0.9141
135200.00000 0.914
135300.00000 0.914
135400.00000 0.9139
135500.00000 0.9138
135600.00000 0.9136
135700.00000 0.9134
135800.00000 0.9131
135900.00000 0.9127
136000.00000 0.9123
136100.00000 0.9118
136200.00000 0.9111
136300.00000 0.9104
136400.00000 0.9095
136500.00000 0.9085
136600.00000 0.9074
136700.00000 0.9061
136800.00000 0.9046
136900.00000 0.9031
137000.00000 0.9015
137100.00000 0.8997
137200.00000 0.8979
137300.00000 0.896
137400.00000 0.8941
137500.00000 0.8921
137600.00000 0.8901
137700.00000 0.8881
137800.00000 0.886
137900.00000 0.884
138000.00000 0.882
138100.00000 0.88
138200.00000 0.878
138300.00000 0.8762
138400.00000 0.8743
138500.00000 0.8726
138600.00000 0.8709
138700.00000 0.8693
138800.00000 0.8679
138900.00000 0.8665
139000.00000 0.8653
139100.00000 0.8642
139200.00000 0.8631
139300.00000 0.8621
139400.00000 0.8612
139500.00000 0.8603
139600.00000 0.8595
139700.00000 0.8587
139800.00000 0.858
139900.00000 0.8573
140000.00000 0.8566
140100.00000 0.8559
140200.00000 0.8552
140300.00000 0.8545
140400.00000 0.8538
140500.00000 0.853
140600.00000 0.8522
140700.00000 0.8514
140800.00000 0.8505
140900.00000 0.8495
141000.00000 0.8484
141100.00000 0.8472
141200.00000 0.8458
141300.00000 0.8443
141400.00000 0.8427
141500.00000 0.8409
141600.00000 0.8388
141700.00000 0.8367
141800.00000 0.8344
141900.00000 0.832
142000.00000 0.8295
142100.00000 0.8271
142200.00000 0.8246
142300.00000 0.8221
142400.00000 0.8196
142500.00000 0.8173
142600.00000 0.815
142700.00000 0.8129
142800.00000 0.8109
142900.00000 0.8092
143000.00000 0.8076
143100.00000 0.8063
143200.00000 0.8053
143300.00000 0.8045
143400.00000 0.804
143500.00000 0.8036
143600.00000 0.8033
143700.00000 0.803
143800.00000 0.8026
143900.00000 0.8022
144000.00000 0.8016
144100.00000 0.8008
144200.00000 0.7998
144300.00000 0.7986
144400.00000 0.7973
144500.00000 0.7959
144600.00000 0.7945
144700.00000 0.7929
144800.00000 0.7914
144900.00000 0.79
145000.00000 0.7885
145100.00000 0.7872
145200.00000 0.786
145300.00000 0.7849
145400.00000 0.784
145500.00000 0.7832
145600.00000 0.7825
145700.00000 0.782
145800.00000 0.7815
145900.00000 0.7812
146000.00000 0.781
146100.00000 0.7808
146200.00000 0.7808
146300.00000 0.7809
146400.00000 0.781
146500.00000 0.7813
146600.00000 0.7816
146700.00000 0.782
146800.00000 0.7824
146900.00000 0.7829
147000.00000 0.7835
147100.00000 0.7841
147200.00000 0.7847
147300.00000 0.7853
147400.00000 0.7859
147500.00000 0.7864
147600.00000 0.7869
147700.00000 0.7873
147800.00000 0.7876
147900.00000 0.7878
148000.00000 0.7879
148100.00000 0.7878
148200.00000 0.7876
148300.00000 0.7873
148400.00000 0.7868
148500.00000 0.7861
148600.00000 0.7853
148700.00000 0.7843
148800.00000 0.7831
148900.00000 0.7817
149000.00000 0.7802
149100.00000 0.7784
149200.00000 0.7764
149300.00000 0.7743
149400.00000 0.7719
149500.00000 0.7692
149600.00000 0.7664
149700.00000 0.7633
149800.00000 0.7599
149900.00000 0.7563
150000.00000 0.7523
150100.00000 0.7481
150200.00000 0.7436
150300.00000 0.7387
150400.00000 0.7337
150500.00000 0.7286
150600.00000 0.7237
150700.00000 0.719
150800.00000 0.7145
150900.00000 0.7101
151000.00000 0.7057
151100.00000 0.7014
151200.00000 0.697
151300.00000 0.6924
151400.00000 0.6877
151500.00000 0.6826
151600.00000 0.6772
151700.00000 0.6714
151800.00000 0.6651
151900.00000 0.6583
152000.00000 0.6508
152100.00000 0.6429
152200.00000 0.6352
152300.00000 0.6283
152400.00000 0.6228
152500.00000 0.6189
152600.00000 0.6162
152700.00000 0.6141
152800.00000 0.6121
152900.00000 0.6096
153000.00000 0.6062
153100.00000 0.6017
153200.00000 0.5964
153300.00000 0.5906
153400.00000 0.5848
153500.00000 0.5787
153600.00000 0.568
153700.00000 0.5668
153900.00000 0.4371
154000.00000 0.3047
154100.00000 0.1679
154200.00000 0.03331
169620.00000 0.0
