# %ECSV 0.9
# ---
# datatype:
# - {name: wavelength, unit: Angstrom, datatype: float32}
# - {name: response, datatype: float32}
# meta: !!omap
# - {band_name: HK}
# - {group_name: Flamingos2}
wavelength response
11173.50000 0.0
12415.00000 0.0042
12420.00000 0.0048
12425.00000 0.0054
12430.00000 0.006
12435.00000 0.0068
12440.00000 0.0077
12445.00000 0.0087
12450.00000 0.0098
12455.00000 0.0111
12460.00000 0.0125
12465.00000 0.0142
12470.00000 0.0162
12475.00000 0.0183
12480.00000 0.0207
12485.00000 0.0234
12490.00000 0.0264
12495.00000 0.0299
12500.00000 0.0337
12505.00000 0.0383
12510.00000 0.0431
12515.00000 0.0488
12520.00000 0.0552
12525.00000 0.0621
12530.00000 0.0703
12535.00000 0.0793
12540.00000 0.0894
12545.00000 0.1007
12550.00000 0.1135
12555.00000 0.1278
12560.00000 0.1434
12565.00000 0.1614
12570.00000 0.1807
12575.00000 0.2016
12580.00000 0.2241
12585.00000 0.2474
12590.00000 0.2729
12595.00000 0.2985
12600.00000 0.3258
12605.00000 0.3536
12610.00000 0.3803
12615.00000 0.4061
12620.00000 0.4312
12625.00000 0.4567
12630.00000 0.4791
12635.00000 0.5006
12640.00000 0.5199
12645.00000 0.537
12650.00000 0.5513
12655.00000 0.5637
12660.00000 0.5753
12665.00000 0.5836
12670.00000 0.59
12675.00000 0.5955
12680.00000 0.6005
12685.00000 0.6044
12690.00000 0.6077
12695.00000 0.6114
12700.00000 0.6149
12705.00000 0.6175
12710.00000 0.6203
12715.00000 0.624
12720.00000 0.6271
12725.00000 0.6297
12730.00000 0.6319
12735.00000 0.6351
12740.00000 0.6378
12745.00000 0.6394
12750.00000 0.6419
12755.00000 0.6448
12760.00000 0.6459
12765.00000 0.6481
12770.00000 0.6507
12775.00000 0.6525
12780.00000 0.6538
12785.00000 0.6552
12790.00000 0.6565
12795.00000 0.6572
12800.00000 0.6568
12805.00000 0.6573
12810.00000 0.658
12815.00000 0.6569
12820.00000 0.6556
12825.00000 0.6541
12830.00000 0.6516
12835.00000 0.6481
12840.00000 0.6456
12845.00000 0.6429
12850.00000 0.6397
12855.00000 0.6354
12860.00000 0.632
12865.00000 0.6292
12870.00000 0.6258
12875.00000 0.6218
12880.00000 0.6183
12885.00000 0.6136
12890.00000 0.6083
12895.00000 0.603
12900.00000 0.599
12905.00000 0.5942
12910.00000 0.5889
12915.00000 0.5843
12920.00000 0.58
12925.00000 0.5744
12930.00000 0.5693
12935.00000 0.5646
12940.00000 0.5606
12945.00000 0.5551
12950.00000 0.5507
12955.00000 0.5472
12960.00000 0.544
12965.00000 0.5419
12970.00000 0.5406
12975.00000 0.5405
12980.00000 0.5399
12985.00000 0.5392
12990.00000 0.5404
12995.00000 0.5417
13000.00000 0.5422
13005.00000 0.5447
13010.00000 0.548
13015.00000 0.5517
13020.00000 0.5548
13025.00000 0.5595
13030.00000 0.5647
13035.00000 0.5691
13040.00000 0.5745
13045.00000 0.5815
13050.00000 0.5885
13055.00000 0.5947
13060.00000 0.6006
13065.00000 0.6084
13070.00000 0.6153
13075.00000 0.6216
13080.00000 0.6285
13085.00000 0.6359
13090.00000 0.6418
13095.00000 0.6468
13100.00000 0.6525
13105.00000 0.6576
13110.00000 0.6602
13115.00000 0.6626
13120.00000 0.6653
13125.00000 0.6659
13130.00000 0.6644
13135.00000 0.6639
13140.00000 0.6631
13145.00000 0.6602
13150.00000 0.6567
13155.00000 0.6541
13160.00000 0.6509
13165.00000 0.6471
13170.00000 0.644
13175.00000 0.642
13180.00000 0.6387
13185.00000 0.6351
13190.00000 0.6331
13195.00000 0.6313
13200.00000 0.6289
13205.00000 0.6263
13210.00000 0.6254
13215.00000 0.6239
13220.00000 0.6224
13225.00000 0.6214
13230.00000 0.6221
13235.00000 0.6218
13240.00000 0.622
13245.00000 0.6232
13250.00000 0.6252
13255.00000 0.6265
13260.00000 0.6284
13265.00000 0.6321
13270.00000 0.6355
13275.00000 0.6381
13280.00000 0.6414
13285.00000 0.6447
13290.00000 0.6474
13295.00000 0.6492
13300.00000 0.6524
13305.00000 0.6561
13310.00000 0.6585
13315.00000 0.661
13320.00000 0.6641
13325.00000 0.6664
13330.00000 0.6669
13335.00000 0.6678
13340.00000 0.6696
13345.00000 0.6688
13350.00000 0.6673
13355.00000 0.6671
13360.00000 0.6661
13365.00000 0.6648
13370.00000 0.6632
13375.00000 0.6629
13380.00000 0.6618
13385.00000 0.6598
13390.00000 0.6585
13395.00000 0.658
13400.00000 0.6564
13405.00000 0.6541
13410.00000 0.6533
13415.00000 0.6526
13420.00000 0.6506
13425.00000 0.6501
13430.00000 0.6505
13435.00000 0.6501
13440.00000 0.6498
13445.00000 0.6493
13450.00000 0.6501
13455.00000 0.6496
13460.00000 0.649
13465.00000 0.65
13470.00000 0.6508
13475.00000 0.6506
13480.00000 0.6513
13485.00000 0.6534
13490.00000 0.6557
13495.00000 0.6561
13500.00000 0.6581
13505.00000 0.6613
13510.00000 0.663
13515.00000 0.6643
13520.00000 0.6665
13525.00000 0.666
13530.00000 0.6645
13535.00000 0.6623
13540.00000 0.6614
13545.00000 0.6601
13550.00000 0.6573
13555.00000 0.6549
13560.00000 0.6536
13565.00000 0.6508
13570.00000 0.6473
13575.00000 0.6448
13580.00000 0.6418
13585.00000 0.6372
13590.00000 0.633
13595.00000 0.6295
13600.00000 0.6257
13605.00000 0.6216
13610.00000 0.6178
13615.00000 0.6141
13620.00000 0.6091
13625.00000 0.6046
13630.00000 0.6015
13635.00000 0.5987
13640.00000 0.5941
13645.00000 0.5898
13650.00000 0.5863
13655.00000 0.5838
13660.00000 0.5809
13665.00000 0.5793
13670.00000 0.5782
13675.00000 0.5759
13680.00000 0.5741
13685.00000 0.574
13690.00000 0.5736
13695.00000 0.573
13700.00000 0.5729
13705.00000 0.5729
13710.00000 0.5732
13715.00000 0.573
13720.00000 0.5734
13725.00000 0.5779
13730.00000 0.5809
13735.00000 0.5844
13740.00000 0.5897
13745.00000 0.5941
13750.00000 0.5981
13755.00000 0.6024
13760.00000 0.6077
13765.00000 0.6124
13770.00000 0.6168
13775.00000 0.6216
13780.00000 0.6269
13785.00000 0.6295
13790.00000 0.6322
13795.00000 0.6352
13800.00000 0.6389
13805.00000 0.6438
13810.00000 0.6489
13815.00000 0.6541
13820.00000 0.6579
13825.00000 0.6618
13830.00000 0.6664
13835.00000 0.67
13840.00000 0.6729
13845.00000 0.6738
13850.00000 0.6747
13855.00000 0.6754
13860.00000 0.6751
13865.00000 0.6751
13870.00000 0.6756
13875.00000 0.6747
13880.00000 0.6728
13885.00000 0.6719
13890.00000 0.6714
13895.00000 0.6691
13900.00000 0.6674
13905.00000 0.6654
13910.00000 0.6632
13915.00000 0.6603
13920.00000 0.6574
13925.00000 0.6553
13930.00000 0.6538
13935.00000 0.6521
13940.00000 0.6504
13945.00000 0.6489
13950.00000 0.6461
13955.00000 0.6439
13960.00000 0.6419
13965.00000 0.6399
13970.00000 0.6375
13975.00000 0.6364
13980.00000 0.6352
13985.00000 0.6346
13990.00000 0.6335
13995.00000 0.6329
14000.00000 0.6329
14005.00000 0.633
14010.00000 0.634
14015.00000 0.635
14020.00000 0.6373
14025.00000 0.6385
14030.00000 0.64
14035.00000 0.6422
14040.00000 0.6444
14045.00000 0.6455
14050.00000 0.6478
14055.00000 0.6502
14060.00000 0.652
14065.00000 0.6539
14070.00000 0.6561
14075.00000 0.6588
14080.00000 0.6606
14085.00000 0.6635
14090.00000 0.6668
14095.00000 0.6702
14100.00000 0.6726
14105.00000 0.6759
14110.00000 0.6796
14115.00000 0.6827
14120.00000 0.685
14125.00000 0.6868
14130.00000 0.6888
14135.00000 0.6895
14140.00000 0.6905
14145.00000 0.691
14150.00000 0.6909
14155.00000 0.6906
14160.00000 0.6898
14165.00000 0.6904
14170.00000 0.6905
14175.00000 0.6894
14180.00000 0.6888
14185.00000 0.6878
14190.00000 0.6853
14195.00000 0.683
14200.00000 0.6816
14205.00000 0.6797
14210.00000 0.677
14215.00000 0.6748
14220.00000 0.6732
14225.00000 0.6716
14230.00000 0.6692
14235.00000 0.6673
14240.00000 0.6659
14245.00000 0.6653
14250.00000 0.6638
14255.00000 0.6638
14260.00000 0.664
14265.00000 0.6636
14270.00000 0.6643
14275.00000 0.6655
14280.00000 0.6663
14285.00000 0.6663
14290.00000 0.6673
14295.00000 0.6689
14300.00000 0.6694
14305.00000 0.6692
14310.00000 0.6697
14315.00000 0.6705
14320.00000 0.6703
14325.00000 0.6712
14330.00000 0.6734
14335.00000 0.6754
14340.00000 0.676
14345.00000 0.6782
14350.00000 0.6803
14355.00000 0.6814
14360.00000 0.6823
14365.00000 0.6849
14370.00000 0.6874
14375.00000 0.6889
14380.00000 0.6907
14385.00000 0.6919
14390.00000 0.6925
14395.00000 0.6922
14400.00000 0.6929
14405.00000 0.6937
14410.00000 0.6933
14415.00000 0.692
14420.00000 0.6927
14425.00000 0.6932
14430.00000 0.6933
14435.00000 0.694
14440.00000 0.6952
14445.00000 0.6949
14450.00000 0.694
14455.00000 0.6939
14460.00000 0.6944
14465.00000 0.6948
14470.00000 0.6954
14475.00000 0.6965
14480.00000 0.6978
14485.00000 0.696
14490.00000 0.6947
14495.00000 0.6948
14500.00000 0.6935
14505.00000 0.6927
14510.00000 0.693
14515.00000 0.6938
14520.00000 0.6934
14525.00000 0.6939
14530.00000 0.6953
14535.00000 0.6963
14540.00000 0.6965
14545.00000 0.6982
14550.00000 0.7012
14555.00000 0.7038
14560.00000 0.7053
14565.00000 0.7071
14570.00000 0.7092
14575.00000 0.7102
14580.00000 0.7113
14585.00000 0.7131
14590.00000 0.7141
14595.00000 0.7142
14600.00000 0.7151
14605.00000 0.719
14610.00000 0.722
14615.00000 0.7247
14620.00000 0.728
14625.00000 0.7324
14630.00000 0.7354
14635.00000 0.7379
14640.00000 0.7422
14645.00000 0.7442
14650.00000 0.7443
14655.00000 0.7455
14660.00000 0.7474
14665.00000 0.7466
14670.00000 0.7455
14675.00000 0.7448
14680.00000 0.7443
14685.00000 0.7436
14690.00000 0.7429
14695.00000 0.7426
14700.00000 0.7426
14705.00000 0.7409
14710.00000 0.7401
14715.00000 0.7398
14720.00000 0.7386
14725.00000 0.7355
14730.00000 0.7342
14735.00000 0.733
14740.00000 0.7304
14745.00000 0.7269
14750.00000 0.7249
14755.00000 0.7222
14760.00000 0.7187
14765.00000 0.7151
14770.00000 0.7121
14775.00000 0.709
14780.00000 0.7051
14785.00000 0.704
14790.00000 0.7039
14795.00000 0.7018
14800.00000 0.7009
14805.00000 0.7009
14810.00000 0.7001
14815.00000 0.6991
14820.00000 0.6992
14825.00000 0.7005
14830.00000 0.701
14835.00000 0.7018
14840.00000 0.7032
14845.00000 0.704
14850.00000 0.7039
14855.00000 0.704
14860.00000 0.7053
14865.00000 0.7063
14870.00000 0.7054
14875.00000 0.7067
14880.00000 0.708
14885.00000 0.7098
14890.00000 0.7111
14895.00000 0.7138
14900.00000 0.716
14905.00000 0.7178
14910.00000 0.7196
14915.00000 0.7217
14920.00000 0.724
14925.00000 0.7261
14930.00000 0.728
14935.00000 0.7314
14940.00000 0.7334
14945.00000 0.7346
14950.00000 0.7373
14955.00000 0.7397
14960.00000 0.7405
14965.00000 0.7413
14970.00000 0.7424
14975.00000 0.743
14980.00000 0.7434
14985.00000 0.7414
14990.00000 0.7404
14995.00000 0.7385
15000.00000 0.7359
15005.00000 0.738
15010.00000 0.7404
15015.00000 0.7413
15020.00000 0.7423
15025.00000 0.7444
15030.00000 0.7463
15035.00000 0.7475
15040.00000 0.7489
15045.00000 0.75
15050.00000 0.7502
15055.00000 0.7499
15060.00000 0.7504
15065.00000 0.7509
15070.00000 0.7503
15075.00000 0.7498
15080.00000 0.7496
15085.00000 0.7494
15090.00000 0.7489
15095.00000 0.7482
15100.00000 0.7487
15105.00000 0.7488
15110.00000 0.7479
15115.00000 0.7481
15120.00000 0.7481
15125.00000 0.7488
15130.00000 0.7489
15135.00000 0.7495
15140.00000 0.7505
15145.00000 0.7509
15150.00000 0.7506
15155.00000 0.7519
15160.00000 0.7528
15165.00000 0.7522
15170.00000 0.7526
15175.00000 0.7532
15180.00000 0.7534
15185.00000 0.754
15190.00000 0.7554
15195.00000 0.7569
15200.00000 0.7575
15205.00000 0.7579
15210.00000 0.7592
15215.00000 0.7604
15220.00000 0.761
15225.00000 0.7615
15230.00000 0.763
15235.00000 0.7641
15240.00000 0.7644
15245.00000 0.7633
15250.00000 0.7625
15255.00000 0.7611
15260.00000 0.7593
15265.00000 0.759
15270.00000 0.7598
15275.00000 0.7591
15280.00000 0.7588
15285.00000 0.7607
15290.00000 0.763
15295.00000 0.7646
15300.00000 0.7659
15305.00000 0.7683
15310.00000 0.7695
15315.00000 0.7701
15320.00000 0.772
15325.00000 0.7725
15330.00000 0.7722
15335.00000 0.7717
15340.00000 0.7719
15345.00000 0.7722
15350.00000 0.7719
15355.00000 0.7708
15360.00000 0.7715
15365.00000 0.7725
15370.00000 0.7719
15375.00000 0.7728
15380.00000 0.7744
15385.00000 0.7744
15390.00000 0.774
15395.00000 0.7749
15400.00000 0.7753
15405.00000 0.7741
15410.00000 0.7732
15415.00000 0.7733
15420.00000 0.7726
15425.00000 0.7721
15430.00000 0.7728
15435.00000 0.7739
15440.00000 0.7742
15445.00000 0.773
15450.00000 0.7738
15455.00000 0.7741
15460.00000 0.7732
15465.00000 0.7716
15470.00000 0.7715
15475.00000 0.7705
15480.00000 0.7685
15485.00000 0.7695
15490.00000 0.772
15495.00000 0.7732
15500.00000 0.7734
15505.00000 0.7711
15510.00000 0.7689
15515.00000 0.7655
15520.00000 0.762
15525.00000 0.7595
15530.00000 0.7567
15535.00000 0.752
15540.00000 0.749
15545.00000 0.7496
15550.00000 0.7489
15555.00000 0.7478
15560.00000 0.7484
15565.00000 0.7476
15570.00000 0.7453
15575.00000 0.7433
15580.00000 0.7429
15585.00000 0.7417
15590.00000 0.7395
15595.00000 0.7383
15600.00000 0.7379
15605.00000 0.7377
15610.00000 0.7364
15615.00000 0.7371
15620.00000 0.738
15625.00000 0.7377
15630.00000 0.737
15635.00000 0.7385
15640.00000 0.7392
15645.00000 0.7392
15650.00000 0.739
15655.00000 0.741
15660.00000 0.7413
15665.00000 0.7411
15670.00000 0.7418
15675.00000 0.7433
15680.00000 0.7437
15685.00000 0.7442
15690.00000 0.747
15695.00000 0.7497
15700.00000 0.7506
15705.00000 0.7524
15710.00000 0.7551
15715.00000 0.757
15720.00000 0.7578
15725.00000 0.7607
15730.00000 0.7648
15735.00000 0.7668
15740.00000 0.7687
15745.00000 0.7685
15750.00000 0.768
15755.00000 0.7661
15760.00000 0.7649
15765.00000 0.7659
15770.00000 0.7662
15775.00000 0.765
15780.00000 0.7654
15785.00000 0.7684
15790.00000 0.7702
15795.00000 0.7716
15800.00000 0.7741
15805.00000 0.7753
15810.00000 0.7752
15815.00000 0.7758
15820.00000 0.7774
15825.00000 0.7782
15830.00000 0.7783
15835.00000 0.7792
15840.00000 0.7808
15845.00000 0.7795
15850.00000 0.7777
15855.00000 0.7771
15860.00000 0.7766
15865.00000 0.7748
15870.00000 0.7733
15875.00000 0.7736
15880.00000 0.7724
15885.00000 0.7729
15890.00000 0.7738
15895.00000 0.7755
15900.00000 0.7761
15905.00000 0.7756
15910.00000 0.7763
15915.00000 0.7772
15920.00000 0.7764
15925.00000 0.7785
15930.00000 0.7812
15935.00000 0.7842
15940.00000 0.7856
15945.00000 0.7836
15950.00000 0.782
15955.00000 0.7797
15960.00000 0.7768
15965.00000 0.776
15970.00000 0.775
15975.00000 0.7722
15980.00000 0.7702
15985.00000 0.7696
15990.00000 0.7684
15995.00000 0.7666
16000.00000 0.7654
16005.00000 0.7651
16010.00000 0.7639
16015.00000 0.7622
16020.00000 0.7618
16025.00000 0.7607
16030.00000 0.7587
16035.00000 0.7565
16040.00000 0.7556
16045.00000 0.7544
16050.00000 0.7521
16055.00000 0.7505
16060.00000 0.7491
16065.00000 0.7472
16070.00000 0.7445
16075.00000 0.7427
16080.00000 0.7413
16085.00000 0.7394
16090.00000 0.7373
16095.00000 0.736
16100.00000 0.7354
16105.00000 0.7336
16110.00000 0.7323
16115.00000 0.7329
16120.00000 0.7315
16125.00000 0.7294
16130.00000 0.7282
16135.00000 0.7272
16140.00000 0.7257
16145.00000 0.724
16150.00000 0.7227
16155.00000 0.7217
16160.00000 0.72
16165.00000 0.7191
16170.00000 0.7198
16175.00000 0.7199
16180.00000 0.719
16185.00000 0.7187
16190.00000 0.7186
16195.00000 0.7179
16200.00000 0.7175
16205.00000 0.7176
16210.00000 0.7181
16215.00000 0.7176
16220.00000 0.7174
16225.00000 0.719
16230.00000 0.72
16235.00000 0.7206
16240.00000 0.7214
16245.00000 0.7233
16250.00000 0.7244
16255.00000 0.7247
16260.00000 0.7267
16265.00000 0.7305
16270.00000 0.7332
16275.00000 0.7359
16280.00000 0.7399
16285.00000 0.7454
16290.00000 0.7503
16295.00000 0.7554
16300.00000 0.7615
16305.00000 0.7617
16310.00000 0.7606
16315.00000 0.7608
16320.00000 0.7612
16325.00000 0.7612
16330.00000 0.7603
16335.00000 0.7608
16340.00000 0.7615
16345.00000 0.7613
16350.00000 0.7623
16355.00000 0.7638
16360.00000 0.7644
16365.00000 0.7643
16370.00000 0.765
16375.00000 0.7662
16380.00000 0.7662
16385.00000 0.765
16390.00000 0.7651
16395.00000 0.7652
16400.00000 0.7636
16405.00000 0.7624
16410.00000 0.7621
16415.00000 0.7612
16420.00000 0.7588
16425.00000 0.7586
16430.00000 0.7588
16435.00000 0.7582
16440.00000 0.7566
16445.00000 0.7556
16450.00000 0.755
16455.00000 0.7531
16460.00000 0.7504
16465.00000 0.7505
16470.00000 0.7493
16475.00000 0.7466
16480.00000 0.7453
16485.00000 0.7442
16490.00000 0.7415
16495.00000 0.7391
16500.00000 0.7375
16505.00000 0.7358
16510.00000 0.733
16515.00000 0.7301
16520.00000 0.7288
16525.00000 0.728
16530.00000 0.7259
16535.00000 0.7247
16540.00000 0.7249
16545.00000 0.7251
16550.00000 0.7247
16555.00000 0.7262
16560.00000 0.7279
16565.00000 0.7254
16570.00000 0.7239
16575.00000 0.7235
16580.00000 0.7226
16585.00000 0.72
16590.00000 0.717
16595.00000 0.7164
16600.00000 0.7144
16605.00000 0.7142
16610.00000 0.7157
16615.00000 0.7183
16620.00000 0.7191
16625.00000 0.7198
16630.00000 0.7233
16635.00000 0.7254
16640.00000 0.7263
16645.00000 0.7275
16650.00000 0.7299
16655.00000 0.7308
16660.00000 0.7314
16665.00000 0.7312
16670.00000 0.7318
16675.00000 0.7309
16680.00000 0.7296
16685.00000 0.7302
16690.00000 0.7301
16695.00000 0.7284
16700.00000 0.728
16705.00000 0.7287
16710.00000 0.7281
16715.00000 0.7267
16720.00000 0.7269
16725.00000 0.7284
16730.00000 0.7281
16735.00000 0.7281
16740.00000 0.7291
16745.00000 0.7303
16750.00000 0.7298
16755.00000 0.7301
16760.00000 0.7321
16765.00000 0.7318
16770.00000 0.7303
16775.00000 0.7307
16780.00000 0.7316
16785.00000 0.7305
16790.00000 0.7301
16795.00000 0.7308
16800.00000 0.7309
16805.00000 0.7294
16810.00000 0.7292
16815.00000 0.7298
16820.00000 0.7297
16825.00000 0.7276
16830.00000 0.7273
16835.00000 0.7275
16840.00000 0.7257
16845.00000 0.7247
16850.00000 0.725
16855.00000 0.7248
16860.00000 0.7231
16865.00000 0.7242
16870.00000 0.7259
16875.00000 0.7262
16880.00000 0.7264
16885.00000 0.7297
16890.00000 0.733
16895.00000 0.7351
16900.00000 0.7372
16905.00000 0.7372
16910.00000 0.7376
16915.00000 0.7366
16920.00000 0.7357
16925.00000 0.7362
16930.00000 0.7354
16935.00000 0.7336
16940.00000 0.7337
16945.00000 0.7358
16950.00000 0.7362
16955.00000 0.737
16960.00000 0.7389
16965.00000 0.7405
16970.00000 0.7408
16975.00000 0.7419
16980.00000 0.7438
16985.00000 0.7442
16990.00000 0.7436
16995.00000 0.7443
17000.00000 0.745
17005.00000 0.7453
17010.00000 0.7451
17015.00000 0.7457
17020.00000 0.7463
17025.00000 0.7459
17030.00000 0.7454
17035.00000 0.7458
17040.00000 0.7459
17045.00000 0.7448
17050.00000 0.7441
17055.00000 0.7439
17060.00000 0.7425
17065.00000 0.739
17070.00000 0.7363
17075.00000 0.7332
17080.00000 0.73
17085.00000 0.7269
17090.00000 0.7244
17095.00000 0.7221
17100.00000 0.719
17105.00000 0.7187
17110.00000 0.7185
17115.00000 0.7182
17120.00000 0.7169
17125.00000 0.7157
17130.00000 0.7153
17135.00000 0.7137
17140.00000 0.7125
17145.00000 0.7124
17150.00000 0.7123
17155.00000 0.7118
17160.00000 0.7113
17165.00000 0.7109
17170.00000 0.711
17175.00000 0.7105
17180.00000 0.7099
17185.00000 0.7095
17190.00000 0.7092
17195.00000 0.7083
17200.00000 0.7075
17205.00000 0.7075
17210.00000 0.7068
17215.00000 0.7058
17220.00000 0.7052
17225.00000 0.7059
17230.00000 0.7057
17235.00000 0.7054
17240.00000 0.7056
17245.00000 0.7078
17250.00000 0.7086
17255.00000 0.7106
17260.00000 0.7128
17265.00000 0.7137
17270.00000 0.7142
17275.00000 0.7157
17280.00000 0.7174
17285.00000 0.7183
17290.00000 0.7184
17295.00000 0.7198
17300.00000 0.721
17305.00000 0.721
17310.00000 0.7205
17315.00000 0.7214
17320.00000 0.7217
17325.00000 0.7215
17330.00000 0.7215
17335.00000 0.7227
17340.00000 0.7224
17345.00000 0.7221
17350.00000 0.7227
17355.00000 0.7226
17360.00000 0.7226
17365.00000 0.7227
17370.00000 0.7239
17375.00000 0.7246
17380.00000 0.7248
17385.00000 0.725
17390.00000 0.7263
17395.00000 0.7266
17400.00000 0.7264
17405.00000 0.7259
17410.00000 0.7261
17415.00000 0.7249
17420.00000 0.7237
17425.00000 0.7239
17430.00000 0.7232
17435.00000 0.722
17440.00000 0.7212
17445.00000 0.7186
17450.00000 0.7157
17455.00000 0.7117
17460.00000 0.7088
17465.00000 0.7074
17470.00000 0.7046
17475.00000 0.7018
17480.00000 0.7006
17485.00000 0.7002
17490.00000 0.6988
17495.00000 0.6986
17500.00000 0.6984
17505.00000 0.6956
17510.00000 0.6921
17515.00000 0.6897
17520.00000 0.6874
17525.00000 0.6846
17530.00000 0.6819
17535.00000 0.6805
17540.00000 0.6788
17545.00000 0.677
17550.00000 0.6762
17555.00000 0.6756
17560.00000 0.6743
17565.00000 0.6726
17570.00000 0.6718
17575.00000 0.6715
17580.00000 0.6702
17585.00000 0.6691
17590.00000 0.6695
17595.00000 0.6694
17600.00000 0.6688
17605.00000 0.6672
17610.00000 0.6669
17615.00000 0.6656
17620.00000 0.6638
17625.00000 0.6633
17630.00000 0.6636
17635.00000 0.6622
17640.00000 0.6615
17645.00000 0.6638
17650.00000 0.6662
17655.00000 0.6673
17660.00000 0.6695
17665.00000 0.6702
17670.00000 0.6697
17675.00000 0.6688
17680.00000 0.6691
17685.00000 0.6693
17690.00000 0.6682
17695.00000 0.6673
17700.00000 0.6677
17705.00000 0.6684
17710.00000 0.6678
17715.00000 0.6687
17720.00000 0.6701
17725.00000 0.6702
17730.00000 0.6703
17735.00000 0.6712
17740.00000 0.6718
17745.00000 0.6733
17750.00000 0.6747
17755.00000 0.677
17760.00000 0.6793
17765.00000 0.6795
17770.00000 0.6805
17775.00000 0.6822
17780.00000 0.683
17785.00000 0.6824
17790.00000 0.6824
17795.00000 0.6832
17800.00000 0.6829
17805.00000 0.6829
17810.00000 0.6842
17815.00000 0.6852
17820.00000 0.6854
17825.00000 0.6865
17830.00000 0.6879
17835.00000 0.6891
17840.00000 0.6893
17845.00000 0.6898
17850.00000 0.6911
17855.00000 0.691
17860.00000 0.691
17865.00000 0.6917
17870.00000 0.6918
17875.00000 0.6916
17880.00000 0.6913
17885.00000 0.6917
17890.00000 0.6919
17895.00000 0.6907
17900.00000 0.6904
17905.00000 0.6901
17910.00000 0.6894
17915.00000 0.6882
17920.00000 0.6877
17925.00000 0.6884
17930.00000 0.688
17935.00000 0.6881
17940.00000 0.689
17945.00000 0.6908
17950.00000 0.692
17955.00000 0.6936
17960.00000 0.6953
17965.00000 0.6962
17970.00000 0.6957
17975.00000 0.697
17980.00000 0.698
17985.00000 0.698
17990.00000 0.6971
17995.00000 0.6976
18000.00000 0.698
18005.00000 0.6974
18010.00000 0.6975
18015.00000 0.698
18020.00000 0.6979
18025.00000 0.6979
18030.00000 0.6983
18035.00000 0.6994
18040.00000 0.6999
18045.00000 0.6991
18050.00000 0.6988
18055.00000 0.6989
18060.00000 0.6977
18065.00000 0.6969
18070.00000 0.6965
18075.00000 0.6959
18080.00000 0.6946
18085.00000 0.6937
18090.00000 0.6928
18095.00000 0.6918
18100.00000 0.6907
18105.00000 0.6919
18110.00000 0.6941
18115.00000 0.6952
18120.00000 0.6962
18125.00000 0.6961
18130.00000 0.696
18135.00000 0.6944
18140.00000 0.6945
18145.00000 0.6937
18150.00000 0.6925
18155.00000 0.6908
18160.00000 0.6899
18165.00000 0.6891
18170.00000 0.6884
18175.00000 0.6869
18180.00000 0.6863
18185.00000 0.6853
18190.00000 0.6833
18195.00000 0.6815
18200.00000 0.6806
18205.00000 0.6794
18210.00000 0.6771
18215.00000 0.6759
18220.00000 0.6749
18225.00000 0.6745
18230.00000 0.6744
18235.00000 0.6749
18240.00000 0.6748
18245.00000 0.6731
18250.00000 0.6709
18255.00000 0.6697
18260.00000 0.6688
18265.00000 0.6666
18270.00000 0.6654
18275.00000 0.6646
18280.00000 0.6627
18285.00000 0.6627
18290.00000 0.6633
18295.00000 0.6645
18300.00000 0.6642
18305.00000 0.6646
18310.00000 0.6654
18315.00000 0.6661
18320.00000 0.666
18325.00000 0.6667
18330.00000 0.6672
18335.00000 0.6681
18340.00000 0.6672
18345.00000 0.6685
18350.00000 0.6699
18355.00000 0.6703
18360.00000 0.6709
18365.00000 0.6723
18370.00000 0.6735
18375.00000 0.6737
18380.00000 0.6746
18385.00000 0.6755
18390.00000 0.6764
18395.00000 0.676
18400.00000 0.6765
18405.00000 0.6776
18410.00000 0.6784
18415.00000 0.6781
18420.00000 0.6794
18425.00000 0.6809
18430.00000 0.6814
18435.00000 0.6831
18440.00000 0.685
18445.00000 0.6848
18450.00000 0.6844
18455.00000 0.6851
18460.00000 0.6858
18465.00000 0.6851
18470.00000 0.6845
18475.00000 0.6847
18480.00000 0.6844
18485.00000 0.6843
18490.00000 0.6843
18495.00000 0.685
18500.00000 0.6847
18505.00000 0.6834
18510.00000 0.6831
18515.00000 0.6831
18520.00000 0.682
18525.00000 0.6811
18530.00000 0.6811
18535.00000 0.6807
18540.00000 0.6795
18545.00000 0.6791
18550.00000 0.6792
18555.00000 0.679
18560.00000 0.6774
18565.00000 0.6779
18570.00000 0.6784
18575.00000 0.6783
18580.00000 0.6778
18585.00000 0.6772
18590.00000 0.6766
18595.00000 0.6751
18600.00000 0.6741
18605.00000 0.6727
18610.00000 0.671
18615.00000 0.669
18620.00000 0.6674
18625.00000 0.6671
18630.00000 0.6667
18635.00000 0.6652
18640.00000 0.6651
18645.00000 0.6651
18650.00000 0.6644
18655.00000 0.6637
18660.00000 0.6646
18665.00000 0.6643
18670.00000 0.6645
18675.00000 0.6646
18680.00000 0.6659
18685.00000 0.6653
18690.00000 0.6646
18695.00000 0.6649
18700.00000 0.665
18705.00000 0.6657
18710.00000 0.6661
18715.00000 0.6679
18720.00000 0.6691
18725.00000 0.6688
18730.00000 0.6697
18735.00000 0.671
18740.00000 0.6709
18745.00000 0.6716
18750.00000 0.6726
18755.00000 0.6736
18760.00000 0.6741
18765.00000 0.6738
18770.00000 0.674
18775.00000 0.6748
18780.00000 0.6741
18785.00000 0.6753
18790.00000 0.6771
18795.00000 0.6775
18800.00000 0.6782
18805.00000 0.6793
18810.00000 0.6799
18815.00000 0.6794
18820.00000 0.6798
18825.00000 0.6798
18830.00000 0.6788
18835.00000 0.6779
18840.00000 0.6777
18845.00000 0.6764
18850.00000 0.6752
18855.00000 0.6735
18860.00000 0.6728
18865.00000 0.6728
18870.00000 0.672
18875.00000 0.6716
18880.00000 0.672
18885.00000 0.672
18890.00000 0.6719
18895.00000 0.6719
18900.00000 0.6724
18905.00000 0.6723
18910.00000 0.6723
18915.00000 0.6725
18920.00000 0.6731
18925.00000 0.6725
18930.00000 0.6717
18935.00000 0.6717
18940.00000 0.6713
18945.00000 0.6707
18950.00000 0.6708
18955.00000 0.6709
18960.00000 0.6702
18965.00000 0.6698
18970.00000 0.67
18975.00000 0.67
18980.00000 0.6693
18985.00000 0.6684
18990.00000 0.6677
18995.00000 0.6669
19000.00000 0.6659
19005.00000 0.6652
19010.00000 0.6647
19015.00000 0.6638
19020.00000 0.6627
19025.00000 0.6626
19030.00000 0.6628
19035.00000 0.6623
19040.00000 0.6622
19045.00000 0.6617
19050.00000 0.6613
19055.00000 0.6604
19060.00000 0.66
19065.00000 0.66
19070.00000 0.659
19075.00000 0.6588
19080.00000 0.6583
19085.00000 0.6603
19090.00000 0.6615
19095.00000 0.6629
19100.00000 0.6652
19105.00000 0.6656
19110.00000 0.6657
19115.00000 0.6662
19120.00000 0.6667
19125.00000 0.6676
19130.00000 0.6675
19135.00000 0.6687
19140.00000 0.6698
19145.00000 0.6695
19150.00000 0.6692
19155.00000 0.6695
19160.00000 0.6697
19165.00000 0.6695
19170.00000 0.6698
19175.00000 0.6711
19180.00000 0.6708
19185.00000 0.6707
19190.00000 0.6721
19195.00000 0.6729
19200.00000 0.6734
19205.00000 0.6728
19210.00000 0.6741
19215.00000 0.6735
19220.00000 0.6733
19225.00000 0.6736
19230.00000 0.675
19235.00000 0.6756
19240.00000 0.6758
19245.00000 0.6773
19250.00000 0.6789
19255.00000 0.6795
19260.00000 0.6797
19265.00000 0.6802
19270.00000 0.6799
19275.00000 0.6786
19280.00000 0.6783
19285.00000 0.6782
19290.00000 0.6771
19295.00000 0.6756
19300.00000 0.6748
19305.00000 0.6742
19310.00000 0.6729
19315.00000 0.6708
19320.00000 0.6702
19325.00000 0.6704
19330.00000 0.6686
19335.00000 0.6686
19340.00000 0.6685
19345.00000 0.6676
19350.00000 0.666
19355.00000 0.6658
19360.00000 0.6654
19365.00000 0.6648
19370.00000 0.6633
19375.00000 0.6636
19380.00000 0.663
19385.00000 0.6604
19390.00000 0.6582
19395.00000 0.6568
19400.00000 0.6544
19405.00000 0.6516
19410.00000 0.6504
19415.00000 0.6487
19420.00000 0.6463
19425.00000 0.6444
19430.00000 0.6429
19435.00000 0.6416
19440.00000 0.6393
19445.00000 0.6374
19450.00000 0.6367
19455.00000 0.6348
19460.00000 0.6327
19465.00000 0.6311
19470.00000 0.6302
19475.00000 0.6277
19480.00000 0.6256
19485.00000 0.6257
19490.00000 0.6252
19495.00000 0.6241
19500.00000 0.624
19505.00000 0.6234
19510.00000 0.622
19515.00000 0.6203
19520.00000 0.6193
19525.00000 0.6191
19530.00000 0.6173
19535.00000 0.6159
19540.00000 0.6157
19545.00000 0.6155
19550.00000 0.6138
19555.00000 0.6134
19560.00000 0.6139
19565.00000 0.6142
19570.00000 0.6143
19575.00000 0.6156
19580.00000 0.6171
19585.00000 0.6164
19590.00000 0.6163
19595.00000 0.6176
19600.00000 0.6179
19605.00000 0.6171
19610.00000 0.6163
19615.00000 0.6171
19620.00000 0.6164
19625.00000 0.6168
19630.00000 0.6184
19635.00000 0.6206
19640.00000 0.6207
19645.00000 0.622
19650.00000 0.6243
19655.00000 0.6264
19660.00000 0.6271
19665.00000 0.6288
19670.00000 0.6311
19675.00000 0.6324
19680.00000 0.6332
19685.00000 0.6349
19690.00000 0.6369
19695.00000 0.6375
19700.00000 0.6382
19705.00000 0.6405
19710.00000 0.642
19715.00000 0.6424
19720.00000 0.6442
19725.00000 0.6468
19730.00000 0.6482
19735.00000 0.649
19740.00000 0.6514
19745.00000 0.6538
19750.00000 0.6552
19755.00000 0.6566
19760.00000 0.6593
19765.00000 0.6618
19770.00000 0.6629
19775.00000 0.6653
19780.00000 0.6682
19785.00000 0.6704
19790.00000 0.6721
19795.00000 0.6753
19800.00000 0.678
19805.00000 0.678
19810.00000 0.6787
19815.00000 0.6805
19820.00000 0.6814
19825.00000 0.6823
19830.00000 0.6838
19835.00000 0.6861
19840.00000 0.6876
19845.00000 0.6858
19850.00000 0.6855
19855.00000 0.6854
19860.00000 0.6832
19865.00000 0.6823
19870.00000 0.6824
19875.00000 0.6823
19880.00000 0.6803
19885.00000 0.6815
19890.00000 0.6831
19895.00000 0.6834
19900.00000 0.683
19905.00000 0.6816
19910.00000 0.6802
19915.00000 0.6779
19920.00000 0.6751
19925.00000 0.6744
19930.00000 0.6729
19935.00000 0.6697
19940.00000 0.6679
19945.00000 0.6684
19950.00000 0.6676
19955.00000 0.6661
19960.00000 0.6659
19965.00000 0.6652
19970.00000 0.6635
19975.00000 0.6621
19980.00000 0.6618
19985.00000 0.6603
19990.00000 0.6578
19995.00000 0.6556
20000.00000 0.655
20005.00000 0.6516
20010.00000 0.6494
20015.00000 0.6482
20020.00000 0.6458
20025.00000 0.6435
20030.00000 0.6428
20035.00000 0.6415
20040.00000 0.6397
20045.00000 0.6381
20050.00000 0.6374
20055.00000 0.6366
20060.00000 0.6349
20065.00000 0.634
20070.00000 0.6337
20075.00000 0.6323
20080.00000 0.6309
20085.00000 0.6307
20090.00000 0.6305
20095.00000 0.6296
20100.00000 0.6291
20105.00000 0.6291
20110.00000 0.6291
20115.00000 0.6287
20120.00000 0.629
20125.00000 0.6292
20130.00000 0.6298
20135.00000 0.6291
20140.00000 0.63
20145.00000 0.631
20150.00000 0.6312
20155.00000 0.6316
20160.00000 0.6332
20165.00000 0.6337
20170.00000 0.6338
20175.00000 0.6341
20180.00000 0.6351
20185.00000 0.6359
20190.00000 0.6371
20195.00000 0.6383
20200.00000 0.6402
20205.00000 0.6419
20210.00000 0.6434
20215.00000 0.6452
20220.00000 0.6479
20225.00000 0.6505
20230.00000 0.6531
20235.00000 0.6563
20240.00000 0.6595
20245.00000 0.6609
20250.00000 0.6632
20255.00000 0.6656
20260.00000 0.6671
20265.00000 0.6692
20270.00000 0.6713
20275.00000 0.6735
20280.00000 0.6755
20285.00000 0.6783
20290.00000 0.6813
20295.00000 0.6842
20300.00000 0.6863
20305.00000 0.6884
20310.00000 0.6902
20315.00000 0.6919
20320.00000 0.693
20325.00000 0.6942
20330.00000 0.6954
20335.00000 0.6963
20340.00000 0.6971
20345.00000 0.6984
20350.00000 0.6992
20355.00000 0.6998
20360.00000 0.6999
20365.00000 0.7007
20370.00000 0.7008
20375.00000 0.7004
20380.00000 0.7005
20385.00000 0.7002
20390.00000 0.7
20395.00000 0.699
20400.00000 0.6985
20405.00000 0.6981
20410.00000 0.6977
20415.00000 0.6966
20420.00000 0.6961
20425.00000 0.6953
20430.00000 0.6944
20435.00000 0.6937
20440.00000 0.6932
20445.00000 0.693
20450.00000 0.693
20455.00000 0.6931
20460.00000 0.6933
20465.00000 0.6925
20470.00000 0.6914
20475.00000 0.6906
20480.00000 0.6897
20485.00000 0.689
20490.00000 0.6881
20495.00000 0.6877
20500.00000 0.6875
20505.00000 0.686
20510.00000 0.6852
20515.00000 0.6847
20520.00000 0.6836
20525.00000 0.683
20530.00000 0.6827
20535.00000 0.6823
20540.00000 0.6815
20545.00000 0.6819
20550.00000 0.6825
20555.00000 0.6831
20560.00000 0.6834
20565.00000 0.683
20570.00000 0.6827
20575.00000 0.682
20580.00000 0.681
20585.00000 0.6807
20590.00000 0.6805
20595.00000 0.6796
20600.00000 0.6795
20605.00000 0.6791
20610.00000 0.6787
20615.00000 0.6784
20620.00000 0.678
20625.00000 0.6778
20630.00000 0.6773
20635.00000 0.6767
20640.00000 0.6765
20645.00000 0.6757
20650.00000 0.6752
20655.00000 0.6745
20660.00000 0.6748
20665.00000 0.6751
20670.00000 0.6748
20675.00000 0.6747
20680.00000 0.6755
20685.00000 0.6753
20690.00000 0.6757
20695.00000 0.6766
20700.00000 0.6773
20705.00000 0.6774
20710.00000 0.678
20715.00000 0.6787
20720.00000 0.6799
20725.00000 0.6806
20730.00000 0.6812
20735.00000 0.6825
20740.00000 0.6831
20745.00000 0.6822
20750.00000 0.6817
20755.00000 0.6816
20760.00000 0.6806
20765.00000 0.6808
20770.00000 0.6812
20775.00000 0.6813
20780.00000 0.6814
20785.00000 0.6822
20790.00000 0.6836
20795.00000 0.6844
20800.00000 0.685
20805.00000 0.685
20810.00000 0.6856
20815.00000 0.6851
20820.00000 0.6851
20825.00000 0.6858
20830.00000 0.6861
20835.00000 0.6861
20840.00000 0.6866
20845.00000 0.6869
20850.00000 0.6869
20855.00000 0.6873
20860.00000 0.6869
20865.00000 0.6875
20870.00000 0.6877
20875.00000 0.6877
20880.00000 0.6886
20885.00000 0.6888
20890.00000 0.6882
20895.00000 0.6883
20900.00000 0.6884
20905.00000 0.6894
20910.00000 0.6901
20915.00000 0.6914
20920.00000 0.6925
20925.00000 0.6928
20930.00000 0.6932
20935.00000 0.694
20940.00000 0.6949
20945.00000 0.6942
20950.00000 0.6933
20955.00000 0.6934
20960.00000 0.692
20965.00000 0.6908
20970.00000 0.6912
20975.00000 0.6909
20980.00000 0.6896
20985.00000 0.6908
20990.00000 0.6918
20995.00000 0.6927
21000.00000 0.6931
21005.00000 0.6939
21010.00000 0.6947
21015.00000 0.6949
21020.00000 0.6951
21025.00000 0.6941
21030.00000 0.6937
21035.00000 0.6923
21040.00000 0.6911
21045.00000 0.6911
21050.00000 0.6904
21055.00000 0.6891
21060.00000 0.689
21065.00000 0.6888
21070.00000 0.6881
21075.00000 0.6871
21080.00000 0.6872
21085.00000 0.6873
21090.00000 0.6867
21095.00000 0.6868
21100.00000 0.6873
21105.00000 0.6873
21110.00000 0.6866
21115.00000 0.6869
21120.00000 0.6873
21125.00000 0.6869
21130.00000 0.6865
21135.00000 0.687
21140.00000 0.6873
21145.00000 0.6867
21150.00000 0.6866
21155.00000 0.6876
21160.00000 0.6872
21165.00000 0.6865
21170.00000 0.6863
21175.00000 0.6864
21180.00000 0.6853
21185.00000 0.6845
21190.00000 0.6849
21195.00000 0.6852
21200.00000 0.6843
21205.00000 0.685
21210.00000 0.6862
21215.00000 0.686
21220.00000 0.6859
21225.00000 0.6879
21230.00000 0.6889
21235.00000 0.6893
21240.00000 0.6906
21245.00000 0.6925
21250.00000 0.6947
21255.00000 0.696
21260.00000 0.6979
21265.00000 0.6986
21270.00000 0.6982
21275.00000 0.6974
21280.00000 0.6982
21285.00000 0.6979
21290.00000 0.6973
21295.00000 0.6972
21300.00000 0.6974
21305.00000 0.697
21310.00000 0.6963
21315.00000 0.6964
21320.00000 0.6965
21325.00000 0.6964
21330.00000 0.6968
21335.00000 0.6973
21340.00000 0.6983
21345.00000 0.6988
21350.00000 0.7002
21355.00000 0.7025
21360.00000 0.7033
21365.00000 0.7035
21370.00000 0.7048
21375.00000 0.7064
21380.00000 0.706
21385.00000 0.7067
21390.00000 0.7083
21395.00000 0.7088
21400.00000 0.7083
21405.00000 0.7097
21410.00000 0.7108
21415.00000 0.7118
21420.00000 0.7119
21425.00000 0.712
21430.00000 0.7119
21435.00000 0.7103
21440.00000 0.7092
21445.00000 0.709
21450.00000 0.7083
21455.00000 0.7062
21460.00000 0.7058
21465.00000 0.705
21470.00000 0.7033
21475.00000 0.7015
21480.00000 0.701
21485.00000 0.7008
21490.00000 0.6994
21495.00000 0.6977
21500.00000 0.6978
21505.00000 0.6978
21510.00000 0.6972
21515.00000 0.6975
21520.00000 0.6987
21525.00000 0.6974
21530.00000 0.6954
21535.00000 0.6956
21540.00000 0.6953
21545.00000 0.6951
21550.00000 0.6956
21555.00000 0.6969
21560.00000 0.6974
21565.00000 0.6964
21570.00000 0.6964
21575.00000 0.6974
21580.00000 0.6967
21585.00000 0.6936
21590.00000 0.6925
21595.00000 0.6916
21600.00000 0.6887
21605.00000 0.6893
21610.00000 0.6913
21615.00000 0.6916
21620.00000 0.6913
21625.00000 0.6927
21630.00000 0.6943
21635.00000 0.6945
21640.00000 0.6948
21645.00000 0.6957
21650.00000 0.6969
21655.00000 0.696
21660.00000 0.696
21665.00000 0.6959
21670.00000 0.6952
21675.00000 0.6929
21680.00000 0.6926
21685.00000 0.6926
21690.00000 0.6909
21695.00000 0.6891
21700.00000 0.6895
21705.00000 0.6895
21710.00000 0.689
21715.00000 0.6885
21720.00000 0.6894
21725.00000 0.6902
21730.00000 0.6903
21735.00000 0.6912
21740.00000 0.6932
21745.00000 0.6929
21750.00000 0.6924
21755.00000 0.6939
21760.00000 0.695
21765.00000 0.6944
21770.00000 0.6943
21775.00000 0.6958
21780.00000 0.6958
21785.00000 0.6931
21790.00000 0.6915
21795.00000 0.6914
21800.00000 0.6899
21805.00000 0.6869
21810.00000 0.6854
21815.00000 0.6848
21820.00000 0.6815
21825.00000 0.6813
21830.00000 0.6822
21835.00000 0.6819
21840.00000 0.6803
21845.00000 0.6814
21850.00000 0.6835
21855.00000 0.6836
21860.00000 0.6839
21865.00000 0.6828
21870.00000 0.6813
21875.00000 0.6786
21880.00000 0.676
21885.00000 0.6758
21890.00000 0.6751
21895.00000 0.6727
21900.00000 0.6718
21905.00000 0.6747
21910.00000 0.6753
21915.00000 0.6765
21920.00000 0.6794
21925.00000 0.6801
21930.00000 0.6795
21935.00000 0.6795
21940.00000 0.6808
21945.00000 0.6795
21950.00000 0.6769
21955.00000 0.6751
21960.00000 0.6746
21965.00000 0.6719
21970.00000 0.6679
21975.00000 0.6662
21980.00000 0.6653
21985.00000 0.6618
21990.00000 0.6595
21995.00000 0.6587
22000.00000 0.6569
22005.00000 0.6562
22010.00000 0.6573
22015.00000 0.6592
22020.00000 0.6598
22025.00000 0.6606
22030.00000 0.6632
22035.00000 0.6658
22040.00000 0.6666
22045.00000 0.6676
22050.00000 0.6705
22055.00000 0.6719
22060.00000 0.672
22065.00000 0.6731
22070.00000 0.6753
22075.00000 0.6759
22080.00000 0.6758
22085.00000 0.6773
22090.00000 0.6789
22095.00000 0.6783
22100.00000 0.6786
22105.00000 0.6803
22110.00000 0.6815
22115.00000 0.6813
22120.00000 0.682
22125.00000 0.6843
22130.00000 0.6847
22135.00000 0.6845
22140.00000 0.6863
22145.00000 0.6875
22150.00000 0.686
22155.00000 0.6852
22160.00000 0.6861
22165.00000 0.6868
22170.00000 0.6858
22175.00000 0.6865
22180.00000 0.6877
22185.00000 0.6875
22190.00000 0.6859
22195.00000 0.6867
22200.00000 0.6873
22205.00000 0.6857
22210.00000 0.6849
22215.00000 0.6858
22220.00000 0.6852
22225.00000 0.6844
22230.00000 0.685
22235.00000 0.6864
22240.00000 0.686
22245.00000 0.6846
22250.00000 0.6844
22255.00000 0.6844
22260.00000 0.6825
22265.00000 0.6816
22270.00000 0.6824
22275.00000 0.6825
22280.00000 0.6805
22285.00000 0.6802
22290.00000 0.681
22295.00000 0.6796
22300.00000 0.6786
22305.00000 0.6776
22310.00000 0.6769
22315.00000 0.6742
22320.00000 0.672
22325.00000 0.6714
22330.00000 0.6706
22335.00000 0.6677
22340.00000 0.6661
22345.00000 0.6652
22350.00000 0.6631
22355.00000 0.6597
22360.00000 0.6585
22365.00000 0.658
22370.00000 0.6548
22375.00000 0.6527
22380.00000 0.652
22385.00000 0.6505
22390.00000 0.6479
22395.00000 0.6463
22400.00000 0.6453
22405.00000 0.6436
22410.00000 0.6405
22415.00000 0.6393
22420.00000 0.6387
22425.00000 0.6363
22430.00000 0.6349
22435.00000 0.6345
22440.00000 0.6333
22445.00000 0.6303
22450.00000 0.6289
22455.00000 0.6283
22460.00000 0.6262
22465.00000 0.6232
22470.00000 0.6215
22475.00000 0.6201
22480.00000 0.6171
22485.00000 0.6152
22490.00000 0.615
22495.00000 0.6138
22500.00000 0.6114
22505.00000 0.6091
22510.00000 0.6082
22515.00000 0.6058
22520.00000 0.6033
22525.00000 0.6021
22530.00000 0.6015
22535.00000 0.5989
22540.00000 0.5976
22545.00000 0.5965
22550.00000 0.5959
22555.00000 0.5937
22560.00000 0.5923
22565.00000 0.5921
22570.00000 0.591
22575.00000 0.5893
22580.00000 0.5889
22585.00000 0.5896
22590.00000 0.5885
22595.00000 0.5878
22600.00000 0.5882
22605.00000 0.5881
22610.00000 0.5865
22615.00000 0.5862
22620.00000 0.5862
22625.00000 0.5857
22630.00000 0.5837
22635.00000 0.5832
22640.00000 0.584
22645.00000 0.5831
22650.00000 0.5822
22655.00000 0.5833
22660.00000 0.5837
22665.00000 0.5835
22670.00000 0.5844
22675.00000 0.5861
22680.00000 0.5871
22685.00000 0.5872
22690.00000 0.5885
22695.00000 0.5903
22700.00000 0.5912
22705.00000 0.5917
22710.00000 0.5937
22715.00000 0.5956
22720.00000 0.5964
22725.00000 0.5972
22730.00000 0.5998
22735.00000 0.6015
22740.00000 0.6023
22745.00000 0.6042
22750.00000 0.6072
22755.00000 0.6085
22760.00000 0.6101
22765.00000 0.6131
22770.00000 0.6159
22775.00000 0.6178
22780.00000 0.6201
22785.00000 0.6233
22790.00000 0.6264
22795.00000 0.6277
22800.00000 0.6305
22805.00000 0.6329
22810.00000 0.6333
22815.00000 0.6338
22820.00000 0.6356
22825.00000 0.6391
22830.00000 0.641
22835.00000 0.6435
22840.00000 0.6472
22845.00000 0.6507
22850.00000 0.6535
22855.00000 0.6567
22860.00000 0.6612
22865.00000 0.6634
22870.00000 0.6647
22875.00000 0.6677
22880.00000 0.6708
22885.00000 0.6726
22890.00000 0.6745
22895.00000 0.6779
22900.00000 0.6802
22905.00000 0.6803
22910.00000 0.6818
22915.00000 0.6839
22920.00000 0.6843
22925.00000 0.6843
22930.00000 0.6852
22935.00000 0.6861
22940.00000 0.6858
22945.00000 0.6863
22950.00000 0.6882
22955.00000 0.6897
22960.00000 0.6891
22965.00000 0.6896
22970.00000 0.6904
22975.00000 0.6901
22980.00000 0.6892
22985.00000 0.689
22990.00000 0.6884
22995.00000 0.6866
23000.00000 0.6848
23005.00000 0.6841
23010.00000 0.6831
23015.00000 0.6807
23020.00000 0.6786
23025.00000 0.6794
23030.00000 0.6782
23035.00000 0.6761
23040.00000 0.6756
23045.00000 0.6753
23050.00000 0.6732
23055.00000 0.6719
23060.00000 0.6715
23065.00000 0.6698
23070.00000 0.6674
23075.00000 0.6657
23080.00000 0.6648
23085.00000 0.6637
23090.00000 0.6611
23095.00000 0.66
23100.00000 0.6596
23105.00000 0.6568
23110.00000 0.6545
23115.00000 0.6539
23120.00000 0.6526
23125.00000 0.649
23130.00000 0.647
23135.00000 0.6453
23140.00000 0.6427
23145.00000 0.64
23150.00000 0.6381
23155.00000 0.6371
23160.00000 0.6345
23165.00000 0.6321
23170.00000 0.631
23175.00000 0.6299
23180.00000 0.6273
23185.00000 0.6255
23190.00000 0.6244
23195.00000 0.6224
23200.00000 0.6201
23205.00000 0.6184
23210.00000 0.6176
23215.00000 0.6153
23220.00000 0.6129
23225.00000 0.6119
23230.00000 0.6111
23235.00000 0.6092
23240.00000 0.6072
23245.00000 0.6074
23250.00000 0.6069
23255.00000 0.605
23260.00000 0.6045
23265.00000 0.605
23270.00000 0.6043
23275.00000 0.6038
23280.00000 0.6041
23285.00000 0.6038
23290.00000 0.6025
23295.00000 0.6016
23300.00000 0.602
23305.00000 0.6019
23310.00000 0.6003
23315.00000 0.5996
23320.00000 0.6001
23325.00000 0.5995
23330.00000 0.5989
23335.00000 0.5994
23340.00000 0.6004
23345.00000 0.5996
23350.00000 0.5995
23355.00000 0.6004
23360.00000 0.6014
23365.00000 0.6012
23370.00000 0.6012
23375.00000 0.6028
23380.00000 0.603
23385.00000 0.603
23390.00000 0.6041
23395.00000 0.6064
23400.00000 0.6067
23405.00000 0.6077
23410.00000 0.6099
23415.00000 0.6119
23420.00000 0.6132
23425.00000 0.6144
23430.00000 0.6167
23435.00000 0.618
23440.00000 0.6185
23445.00000 0.6205
23450.00000 0.6234
23455.00000 0.6249
23460.00000 0.6259
23465.00000 0.6274
23470.00000 0.6291
23475.00000 0.6288
23480.00000 0.6295
23485.00000 0.6318
23490.00000 0.6332
23495.00000 0.6332
23500.00000 0.6345
23505.00000 0.6373
23510.00000 0.6391
23515.00000 0.6403
23520.00000 0.643
23525.00000 0.645
23530.00000 0.6458
23535.00000 0.6461
23540.00000 0.6483
23545.00000 0.6493
23550.00000 0.6496
23555.00000 0.6507
23560.00000 0.6525
23565.00000 0.652
23570.00000 0.6516
23575.00000 0.6517
23580.00000 0.6524
23585.00000 0.6525
23590.00000 0.6517
23595.00000 0.653
23600.00000 0.6538
23605.00000 0.6541
23610.00000 0.6549
23615.00000 0.6576
23620.00000 0.6584
23625.00000 0.6576
23630.00000 0.6578
23635.00000 0.6585
23640.00000 0.658
23645.00000 0.6571
23650.00000 0.6577
23655.00000 0.658
23660.00000 0.6566
23665.00000 0.6564
23670.00000 0.6575
23675.00000 0.6573
23680.00000 0.6563
23685.00000 0.6552
23690.00000 0.6551
23695.00000 0.6528
23700.00000 0.6509
23705.00000 0.6502
23710.00000 0.6497
23715.00000 0.6478
23720.00000 0.6459
23725.00000 0.6465
23730.00000 0.6463
23735.00000 0.645
23740.00000 0.645
23745.00000 0.6452
23750.00000 0.6441
23755.00000 0.6426
23760.00000 0.6418
23765.00000 0.6409
23770.00000 0.6381
23775.00000 0.6363
23780.00000 0.6352
23785.00000 0.6346
23790.00000 0.6331
23795.00000 0.6329
23800.00000 0.633
23805.00000 0.6337
23810.00000 0.6331
23815.00000 0.6342
23820.00000 0.6355
23825.00000 0.6341
23830.00000 0.633
23835.00000 0.6331
23840.00000 0.6328
23845.00000 0.6313
23850.00000 0.6305
23855.00000 0.631
23860.00000 0.6302
23865.00000 0.6296
23870.00000 0.6296
23875.00000 0.6299
23880.00000 0.6294
23885.00000 0.6286
23890.00000 0.6299
23895.00000 0.6305
23900.00000 0.6303
23905.00000 0.6309
23910.00000 0.6333
23915.00000 0.6342
23920.00000 0.6346
23925.00000 0.6344
23930.00000 0.6351
23935.00000 0.6339
23940.00000 0.6331
23945.00000 0.6321
23950.00000 0.6315
23955.00000 0.6295
23960.00000 0.6278
23965.00000 0.6288
23970.00000 0.6287
23975.00000 0.628
23980.00000 0.6278
23985.00000 0.629
23990.00000 0.6279
23995.00000 0.6273
24000.00000 0.6276
24005.00000 0.6277
24010.00000 0.6263
24015.00000 0.6253
24020.00000 0.6253
24025.00000 0.6256
24030.00000 0.624
24035.00000 0.6236
24040.00000 0.6242
24045.00000 0.6233
24050.00000 0.6216
24055.00000 0.6213
24060.00000 0.6214
24065.00000 0.6192
24070.00000 0.6171
24075.00000 0.6164
24080.00000 0.615
24085.00000 0.6135
24090.00000 0.6124
24095.00000 0.6124
24100.00000 0.6112
24105.00000 0.6085
24110.00000 0.6075
24115.00000 0.6066
24120.00000 0.604
24125.00000 0.603
24130.00000 0.6026
24135.00000 0.6019
24140.00000 0.6001
24145.00000 0.5986
24150.00000 0.5983
24155.00000 0.5965
24160.00000 0.5941
24165.00000 0.5919
24170.00000 0.5903
24175.00000 0.5872
24180.00000 0.5838
24185.00000 0.5825
24190.00000 0.5809
24195.00000 0.578
24200.00000 0.5757
24205.00000 0.5743
24210.00000 0.5715
24215.00000 0.5681
24220.00000 0.5661
24225.00000 0.5642
24230.00000 0.561
24235.00000 0.5584
24240.00000 0.5562
24245.00000 0.5551
24250.00000 0.5521
24255.00000 0.55
24260.00000 0.5491
24265.00000 0.5472
24270.00000 0.5442
24275.00000 0.5427
24280.00000 0.5418
24285.00000 0.5392
24290.00000 0.537
24295.00000 0.5362
24300.00000 0.5349
24305.00000 0.5325
24310.00000 0.5307
24315.00000 0.5303
24320.00000 0.5286
24325.00000 0.5265
24330.00000 0.5254
24335.00000 0.5253
24340.00000 0.5236
24345.00000 0.5214
24350.00000 0.5211
24355.00000 0.5204
24360.00000 0.5187
24365.00000 0.5161
24370.00000 0.515
24375.00000 0.513
24380.00000 0.5104
24385.00000 0.5095
24390.00000 0.5098
24395.00000 0.5089
24400.00000 0.5077
24405.00000 0.5076
24410.00000 0.5078
24415.00000 0.5065
24420.00000 0.5058
24425.00000 0.5059
24430.00000 0.5052
24435.00000 0.5041
24440.00000 0.5032
24445.00000 0.5046
24450.00000 0.5047
24455.00000 0.5048
24460.00000 0.506
24465.00000 0.5071
24470.00000 0.5072
24475.00000 0.507
24480.00000 0.5086
24485.00000 0.5091
24490.00000 0.5085
24495.00000 0.5087
24500.00000 0.5098
24505.00000 0.5102
24510.00000 0.5103
24515.00000 0.5117
24520.00000 0.5132
24525.00000 0.5142
24530.00000 0.5149
24535.00000 0.5173
24540.00000 0.5191
24545.00000 0.5202
24550.00000 0.5216
24555.00000 0.5241
24560.00000 0.5257
24565.00000 0.5258
24570.00000 0.5273
24575.00000 0.529
24580.00000 0.5296
24585.00000 0.5291
24590.00000 0.5301
24595.00000 0.5306
24600.00000 0.5299
24605.00000 0.5297
24610.00000 0.5305
24615.00000 0.5307
24620.00000 0.5295
24625.00000 0.5295
24630.00000 0.5305
24635.00000 0.5296
24640.00000 0.5286
24645.00000 0.5298
24650.00000 0.5305
24655.00000 0.53
24660.00000 0.5298
24665.00000 0.5316
24670.00000 0.5323
24675.00000 0.5322
24680.00000 0.5333
24685.00000 0.5338
24690.00000 0.5337
24695.00000 0.5327
24700.00000 0.5328
24705.00000 0.5328
24710.00000 0.531
24715.00000 0.5296
24720.00000 0.5297
24725.00000 0.5281
24730.00000 0.5261
24735.00000 0.5244
24740.00000 0.5236
24745.00000 0.522
24750.00000 0.5195
24755.00000 0.518
24760.00000 0.517
24765.00000 0.5147
24770.00000 0.5124
24775.00000 0.5114
24780.00000 0.5097
24785.00000 0.5074
24790.00000 0.5061
24795.00000 0.5052
24800.00000 0.5034
24805.00000 0.5014
24810.00000 0.4996
24815.00000 0.4983
24820.00000 0.4961
24825.00000 0.494
24830.00000 0.4925
24835.00000 0.4911
24840.00000 0.4884
24845.00000 0.4875
24850.00000 0.4873
24855.00000 0.4865
24860.00000 0.4852
24865.00000 0.4852
24870.00000 0.4849
24875.00000 0.4844
24880.00000 0.4839
24885.00000 0.4837
24890.00000 0.4831
24895.00000 0.4819
24900.00000 0.4813
24905.00000 0.4825
24910.00000 0.4829
24915.00000 0.4833
24920.00000 0.4843
24925.00000 0.4851
24930.00000 0.4863
24935.00000 0.4872
24940.00000 0.4891
24945.00000 0.4905
24950.00000 0.4919
24955.00000 0.4931
24960.00000 0.4946
24965.00000 0.4966
24970.00000 0.4979
24975.00000 0.4989
24980.00000 0.5008
24985.00000 0.5015
24990.00000 0.5016
24995.00000 0.5025
25000.00000 0.5039
25005.00000 0.5041
25010.00000 0.5045
25015.00000 0.5052
25020.00000 0.5049
25025.00000 0.5043
25030.00000 0.503
25035.00000 0.5019
25040.00000 0.4999
25045.00000 0.4974
25050.00000 0.4951
25055.00000 0.4919
25060.00000 0.4874
25065.00000 0.4816
25070.00000 0.475
25075.00000 0.4683
25080.00000 0.4603
25085.00000 0.4512
25090.00000 0.4415
25095.00000 0.4305
25100.00000 0.419
25105.00000 0.4073
25110.00000 0.3958
25115.00000 0.3837
25120.00000 0.37
25125.00000 0.3562
25130.00000 0.3427
25135.00000 0.3282
25140.00000 0.3136
25145.00000 0.2997
25150.00000 0.2854
25155.00000 0.2701
25160.00000 0.2555
25165.00000 0.2408
25170.00000 0.2269
25175.00000 0.2134
25180.00000 0.2003
25185.00000 0.1882
25190.00000 0.1765
25195.00000 0.1653
25200.00000 0.1551
25205.00000 0.1456
25210.00000 0.1363
25215.00000 0.1273
25220.00000 0.1191
25225.00000 0.1112
25230.00000 0.1035
25235.00000 0.0964
25240.00000 0.0898
25245.00000 0.0836
25250.00000 0.0775
25255.00000 0.0719
25260.00000 0.067
25265.00000 0.0625
25270.00000 0.0585
25275.00000 0.0549
25280.00000 0.0515
25285.00000 0.0482
25290.00000 0.045
25295.00000 0.042
25300.00000 0.0393
25305.00000 0.0366
25310.00000 0.0342
25315.00000 0.0319
25320.00000 0.0296
25325.00000 0.0274
25330.00000 0.0255
25335.00000 0.0237
25340.00000 0.022
25345.00000 0.0205
25350.00000 0.0191
25355.00000 0.0179
25360.00000 0.0167
25365.00000 0.0156
25370.00000 0.0147
25375.00000 0.0138
25380.00000 0.013
25385.00000 0.0122
25390.00000 0.0116
25395.00000 0.0111
25400.00000 0.0105
25405.00000 0.0099
25410.00000 0.0095
25415.00000 0.0089
25420.00000 0.0083
25425.00000 0.0079
25430.00000 0.0074
25435.00000 0.0069
25440.00000 0.0064
25445.00000 0.006
25450.00000 0.0056
25455.00000 0.0053
25460.00000 0.0051
25465.00000 0.0048
25470.00000 0.0045
25475.00000 0.0043
25480.00000 0.0041
28028.00000 0.0
